File: data/20200826/Z_p29_1.txt
Index	Frequency (Hz)	Z' (Ω)	-Z'' (Ω)	Z (Ω)	-Phase (°)	Time (s)
1	1000000	3352.15	6256.7	7098.11	61.819	42.3916
2	794330	4736.05	6574.57	8102.79	54.2326	46.8567
3	630960	6161.89	7181.96	9463.06	49.3715	52.2468
4	501190	7824.82	7818.13	11061.2	44.9755	55.9668
5	398110	9688.8	8962.27	13198.3	42.7692	70.1921
6	316230	11270.5	9332.99	14633.2	39.6277	73.5672
7	251190	12846.8	9613.35	16045.5	36.8077	88.5274
8	199530	14586	9948.79	17655.8	34.2971	94.3326
9	158490	16355.5	10166	19257.5	31.8637	103.038
10	125890	18153.1	10248.3	20846.2	29.4467	106.408
11	100000	19920	10198	22378.7	27.1101	109.683
12	79433	21689.3	10044	23902	24.8482	113.033
13	63096	23391.5	9733.97	25336	22.5938	116.553
14	50119	25085.7	9271.11	26744.1	20.2832	120.428
15	39811	26574.8	8783.01	27988.6	18.2888	123.913
16	31623	27940.5	8151.02	29105.1	16.2634	128.383
17	25119	29110.1	7501.93	30061.2	14.4512	132.738
18	19953	30192.2	6888.35	30968	12.8521	136.378
19	15849	31122.5	6238.07	31741.5	11.3339	140.413
20	12589	31885.6	5685.81	32388.6	10.1107	144.833
21	10000	32697.8	5129.6	33097.8	8.91583	152.639
22	7943.3	33316.9	4661.3	33641.4	7.96444	157.634
23	6309.6	33863.6	4246.68	34128.8	7.14789	161.534
24	5011.9	34361	3889.92	34580.5	6.4588	165.389
25	3981.1	34810.2	3588.64	34994.6	5.88593	171.219
26	3162.3	35197.3	3332.24	35354.7	5.40824	175.679
27	2511.9	35602	3121.59	35738.6	5.0109	179.564
28	1995.3	35966.1	2948.62	36086.7	4.68682	182.919
29	1584.9	36297.5	2807.08	36405.9	4.42219	186.539
30	1258.9	36646.9	2695.12	36745.9	4.20613	190.059
31	1000	36988.1	2604.72	37079.7	4.02815	194.039
32	794.33	37326.8	2536.51	37412.9	3.88752	199.209
33	630.96	37665.9	2482.64	37747.6	3.77102	206.12
34	501.19	37988.4	2442.87	38066.8	3.67938	211.86
35	398.11	38333.6	2416.42	38409.7	3.60697	221.04
36	316.23	38674.4	2394.21	38748.5	3.54248	224.84
37	251.19	39002.1	2380.75	39074.7	3.49309	227.72
38	199.53	39331.7	2373.51	39403.2	3.45339	230.905
39	158.49	39680.8	2368.9	39751.5	3.41644	239.845
40	125.89	40007.5	2369.06	40077.6	3.38884	244.27
41	100	40368.5	2364.62	40437.7	3.35232	248.255
42	79.433	40704.2	2367.04	40772.9	3.32813	251.75
43	63.096	41041	2356.48	41108.6	3.28618	255.021
44	50.119	41419.6	2390.23	41488.6	3.30274	257.811
45	39.811	41751.8	2361.95	41818.6	3.23783	268.481
46	31.623	42103.3	2358.31	42169.3	3.20593	272.431
47	25.119	42423.8	2345.18	42488.6	3.16408	275.931
48	19.953	42789.6	2341.04	42853.5	3.13157	281.086
49	15.849	43115.5	2332.23	43178.5	3.09626	284.531
50	12.589	43456.5	2327.66	43518.7	3.06601	291.221
51	10	43797	2320.78	43858.4	3.03323	296.061
52	7.9433	44117.5	2324.18	44178.7	3.01564	299.966
53	6.3096	44419.7	2324.26	44480.5	2.99527	303.971
54	5.0119	44733.9	2347.76	44795.5	3.00429	308.052
55	3.9811	45019	2385.99	45082.2	3.03382	313.822
56	3.1623	45322	2440.49	45387.7	3.08227	316.772
57	2.5119	45664.8	2523.39	45734.4	3.16289	323.502
58	1.9953	45901.4	2593.77	45974.7	3.2342	328.222
59	1.5849	46176.8	2805.32	46261.9	3.47654	333.667
60	1.2589	46471	3017.66	46568.9	3.71537	340.102
61	1	46743.2	3279.71	46858.1	4.01355	354.662
62	0.79433	47043.4	3631.4	47183.4	4.41405	363.363
63	0.63096	47356.4	4038.43	47528.3	4.87425	371.053
64	0.50119	47665.6	4550.5	47882.3	5.45334	376.213
65	0.39811	47989.7	5254.23	48276.5	6.24824	383.373
66	0.31623	48352.3	6111.25	48736.9	7.20343	393.433
67	0.25119	48808.1	7230.17	49340.8	8.4262	400.743
68	0.19953	49107.6	8573.88	49850.5	9.90366	409.643
69	0.15849	49832.3	10128.7	50851.3	11.4892	421.579
70	0.12589	50455.7	12309.5	51935.6	13.7105	431.654
71	0.1	51462.9	14409.3	53442.1	15.642	442.424