File: data/20200826/Z_p28_1.txt
Index	Frequency (Hz)	Z' (Ω)	-Z'' (Ω)	Z (Ω)	-Phase (°)	Time (s)
1	1000000	3356.74	7299.56	8034.38	65.3044	145.496
2	794330	5131.89	7723.42	9272.95	56.3976	149.077
3	630960	7024.25	8621.7	11120.9	50.8297	155.267
4	501190	9023.95	9422.07	13046.3	46.2364	162.312
5	398110	11470.4	11093.6	15957.4	44.0433	196.512
6	316230	13736.5	11695.4	18040.9	40.4113	201.007
7	251190	15645.8	11934.4	19677.9	37.3358	216.513
8	199530	17900.6	12209.9	21668.2	34.2977	223.068
9	158490	20149	12263.4	23587.5	31.3263	229.708
10	125890	22344.1	12118.7	25419	28.4739	236.393
11	100000	24433.9	11802.2	27135	25.7818	240.578
12	79433	26415.2	11327.7	28741.6	23.2113	247.338
13	63096	28287.1	10732	30254.6	20.7765	251.463
14	50119	30010.9	10020.5	31639.6	18.4639	257.174
15	39811	31556.1	9325.99	32905.3	16.4644	261.954
16	31623	32836.6	8514.99	33922.7	14.5374	266.949
17	25119	33949.5	7857.66	34847	13.0317	271.019
18	19953	34990.4	7207.34	35725	11.639	275.339
19	15849	35925.6	6551.98	36518.1	10.3358	278.094
20	12589	36725.6	6046.13	37220	9.34874	284.579
21	10000	37572.2	5515.74	37974.9	8.35157	290.259
22	7943.3	38256.9	5090.39	38594.1	7.57913	293.314
23	6309.6	38857.3	4719.63	39142.9	6.92526	296.114
24	5011.9	39419.7	4403.79	39664.9	6.3744	299.209
25	3981.1	39945.2	4141.8	40159.3	5.91967	301.884
26	3162.3	40430.4	3921.36	40620.1	5.53982	304.199
27	2511.9	40910.3	3745.58	41081.5	5.23118	307.969
28	1995.3	41367.9	3604.64	41524.7	4.97995	312.565
29	1584.9	41828.5	3496.01	41974.4	4.77765	321.1
30	1258.9	42277.3	3412.11	42414.8	4.61421	324.48
31	1000	42737.4	3355.31	42868.9	4.48909	327.25
32	794.33	43158.3	3313.01	43285.3	4.38965	330.48
33	630.96	43627.2	3291.19	43751.2	4.31416	332.53
34	501.19	44072.1	3277.69	44193.8	4.25332	338.33
35	398.11	44564.2	3276.9	44684.5	4.20551	342.835
36	316.23	44993.2	3284.79	45113	4.17555	345.01
37	251.19	45479.4	3300.26	45598.9	4.15046	346.57
38	199.53	45960.2	3316.82	46079.8	4.12772	348.28
39	158.49	46426.5	3339.43	46546.5	4.11416	351.18
40	125.89	46926.8	3358.09	47046.8	4.09312	355.555
41	100	47401.6	3383.58	47522.2	4.08291	359.25
42	79.433	47902.4	3409.03	48023.5	4.07066	362.97
43	63.096	48415.8	3411.94	48535.9	4.03106	367.016
44	50.119	48937.3	3442.81	49058.3	4.02421	378.066
45	39.811	49450	3494.11	49573.3	4.04178	394.956
46	31.623	49953.5	3531.2	50078.2	4.04349	397.491
47	25.119	50484.8	3552.96	50609.7	4.02566	400.896
48	19.953	51009.3	3590.95	51135.5	4.02687	405.781
49	15.849	51500.2	3620.46	51627.3	4.02128	410.501
50	12.589	52024.8	3654.44	52153	4.01809	414.306
51	10	52557.2	3702.9	52687.4	4.0301	418.256
52	7.9433	53041.8	3752.82	53174.4	4.04705	422.522
53	6.3096	53563.5	3834.68	53700.6	4.09489	426.352
54	5.0119	54041.9	3910.98	54183.2	4.13924	430.347
55	3.9811	54510.7	4050.1	54661	4.24921	433.102
56	3.1623	54978.7	4222.66	55140.6	4.392	435.887
57	2.5119	55464.9	4455.42	55643.6	4.59263	438.902
58	1.9953	55863.8	4723.46	56063.1	4.83304	442.387
59	1.5849	56429.4	5102.07	56659.6	5.16636	450.082
60	1.2589	56858.4	5721.83	57145.6	5.7465	456.927
61	1	57318.5	6345.28	57668.6	6.31704	464.127
62	0.79433	57817.5	7175.39	58261.1	7.07447	469.412
63	0.63096	58346.6	8275.68	58930.6	8.07279	473.958
64	0.50119	58904.4	9490.99	59664.2	9.15313	479.048
65	0.39811	59654	11223	60700.5	10.6548	484.453
66	0.31623	60248	13253.4	61688.6	12.4064	491.583
67	0.25119	61151.1	15599.8	63109.5	14.3111	499.863
68	0.19953	62173.5	18800.2	64953.8	16.8244	507.823
69	0.15849	63707	22105.6	67433.2	19.1362	519.453
70	0.12589	65379.2	27043.4	70751.6	22.4719	530.094
71	0.1	67183.9	32213.8	74507.8	25.6171	542.194