File: data/20200826/Z_p27_1.txt
Index	Frequency (Hz)	Z' (Ω)	-Z'' (Ω)	Z (Ω)	-Phase (°)	Time (s)
1	1000000	3361.03	6517.46	7333.07	62.72	13.907
2	794330	4906.8	6846.27	8423.07	54.3704	15.5071
3	630960	6539.24	7517.16	9963.4	48.9797	17.1121
4	501190	8152.85	8091.27	11486.4	44.7828	18.6871
5	398110	10412.8	9190.6	13888.6	41.4325	24.0772
6	316230	12283.4	9641.8	15615.6	38.13	25.4322
7	251190	13825.3	9505.75	16777.9	34.5109	30.1823
8	199530	15612.1	9562.13	18307.7	31.4867	31.6624
9	158490	17349.6	9442.87	19752.8	28.5582	33.2124
10	125890	19027.5	9187.38	21129.5	25.7734	34.6874
11	100000	20562.8	8811.1	22371.1	23.1949	36.1574
12	79433	22021.9	8362.83	23556.3	20.7943	37.6525
13	63096	23304.3	7886.29	24602.6	18.696	39.1225
14	50119	24518.4	7302.31	25582.7	16.5851	40.8075
15	39811	25574.8	6688.42	26434.9	14.656	42.3426
16	31623	26452.2	6072.11	27140.2	12.9283	43.7926
17	25119	27234.7	5586.26	27801.7	11.5915	45.2526
18	19953	27956.8	5124.35	28422.6	10.3867	46.6676
19	15849	28597.5	4704.45	28981.9	9.34181	48.0627
20	12589	29165.8	4315.47	29483.3	8.41662	49.5077
21	10000	29734.1	3944.8	29994.6	7.55727	51.9277
22	7943.3	30226	3659.37	30446.7	6.90304	53.2978
23	6309.6	30655	3412.41	30844.4	6.35182	54.7628
24	5011.9	31067.8	3205.85	31232.7	5.89144	56.2678
25	3981.1	31451.6	3032.57	31597.4	5.50746	57.7528
26	3162.3	31819.3	2891.77	31950.4	5.19285	59.1379
27	2511.9	32167.2	2776.64	32286.9	4.93348	60.6179
28	1995.3	32508.7	2688.85	32619.7	4.72827	62.0129
29	1584.9	32859.6	2619.6	32963.8	4.55804	63.3629
30	1258.9	33198.5	2571.69	33297.9	4.42951	64.868
31	1000	33538.1	2535.21	33633.8	4.32288	66.363
32	794.33	33898.9	2516.01	33992.2	4.24475	68.598
33	630.96	34239	2505.64	34330.5	4.18549	70.0131
34	501.19	34585.7	2503	34676.2	4.13934	71.5281
35	398.11	34935.6	2510.55	35025.7	4.11034	73.0181
36	316.23	35294.6	2517.66	35384.3	4.08015	74.4331
37	251.19	35665.8	2533.48	35755.7	4.06311	76.0532
38	199.53	36034.4	2549.55	36124.5	4.04712	77.5432
39	158.49	36411.6	2568.78	36502.1	4.03544	79.0432
40	125.89	36755.7	2585.7	36846.5	4.02403	80.6383
41	100	37146	2607.42	37237.4	4.01523	82.1483
42	79.433	37523.8	2632.61	37616	4.01321	83.8783
43	63.096	37920.8	2655.08	38013.6	4.00512	85.4484
44	50.119	38326.6	2683.27	38420.4	4.00478	86.8784
45	39.811	38695.9	2691.4	38789.4	3.97867	98.4536
46	31.623	39093	2709.05	39186.8	3.96412	102.149
47	25.119	39493.5	2722.78	39587.3	3.94388	109.924
48	19.953	39872.2	2738.92	39966.2	3.92962	113.869
49	15.849	40297.9	2756.02	40392	3.91243	116.334
50	12.589	40684.4	2770.35	40778.6	3.89547	118.844
51	10	41094.8	2784.08	41189	3.87574	121.674
52	7.9433	41473.2	2798.35	41567.5	3.8601	124.349
53	6.3096	41859.5	2837.99	41955.6	3.87861	127.339
54	5.0119	42234.8	2853.38	42331.1	3.86502	130.219
55	3.9811	42618.1	2902.76	42716.8	3.89646	133.174
56	3.1623	42969.2	2978.9	43072.3	3.96576	136.124
57	2.5119	43334	3083.6	43443.6	4.07024	139.299
58	1.9953	43618.3	3257.12	43739.7	4.27054	142.344
59	1.5849	44020	3355.71	44147.8	4.3593	145.649
60	1.2589	44345.7	3662.27	44496.6	4.72104	149.185
61	1	44686.2	3998.6	44864.8	5.1133	155.105
62	0.79433	45054.1	4420.02	45270.4	5.60306	158.745
63	0.63096	45393.2	4973.54	45664.8	6.25272	162.915
64	0.50119	45694.3	5582.62	46034.1	6.96548	167.345
65	0.39811	46093.8	6535.63	46554.8	8.07017	171.945
66	0.31623	46435	7679.27	47065.7	9.39041	177.245
67	0.25119	47090.7	8989.86	47941.1	10.808	183.11
68	0.19953	47528.4	10766.3	48732.5	12.7634	189.765
69	0.15849	48102	12735.4	49759.3	14.8292	197.6
70	0.12589	48936.2	15307.2	51274.3	17.3696	206.761
71	0.1	50156	18084	53316.6	19.827	217.751