File: data/20200826/Z_p31_1.txt
Index	Frequency (Hz)	Z' (Ω)	-Z'' (Ω)	Z (Ω)	-Phase (°)	Time (s)
1	1000000	3339.92	6895.37	7661.68	64.1558	35.0274
2	794330	4965.17	7313.54	8839.73	55.8274	37.4324
3	630960	6730.45	8061.92	10502.1	50.1434	44.2026
4	501190	8518.02	8835.99	12273.2	46.0497	46.4276
5	398110	10881.1	10132.6	14868.3	42.9599	53.8878
6	316230	12979.7	10542.4	16721.7	39.0842	60.6929
7	251190	14714.2	10600.7	18135.1	35.7706	72.6431
8	199530	16743.6	10691.5	19866	32.5598	74.6231
9	158490	18731.1	10594.7	21519.8	29.4934	76.8932
10	125890	20621.3	10283.5	23043.2	26.5048	78.9832
11	100000	22372.1	9844.14	24442.1	23.7504	81.0483
12	79433	24017.2	9297.15	25753.9	21.1616	83.0783
13	63096	25445.7	8688.55	26888.2	18.8527	85.2033
14	50119	26814.6	7973.49	27975	16.5602	92.6085
15	39811	27945.7	7272.11	28876.4	14.5862	94.8585
16	31623	28853.4	6567.76	29591.4	12.8235	96.9335
17	25119	29742	5954.05	30332.2	11.3204	98.9986
18	19953	30451	5445.93	30934.2	10.1397	100.879
19	15849	31114.9	4950.55	31506.3	9.04029	102.909
20	12589	31707.9	4578.03	32036.6	8.21568	105.024
21	10000	32299.3	4156.78	32565.7	7.33341	108.504
22	7943.3	32798.6	3857.93	33024.7	6.70858	110.609
23	6309.6	33235.9	3606.68	33431	6.19337	117.584
24	5011.9	33668.2	3403.87	33839.8	5.77302	119.654
25	3981.1	34068.8	3238.5	34222.3	5.4301	121.799
26	3162.3	34440.6	3114.48	34581.1	5.16722	123.634
27	2511.9	34819.1	3022.28	34950	4.96081	125.749
28	1995.3	35201.7	2963.13	35326.2	4.81157	127.454
29	1584.9	35568.5	2923.96	35688.4	4.69952	135.229
30	1258.9	35938.8	2910.55	36056.5	4.63006	137.309
31	1000	36336.3	2919.83	36453.4	4.59418	139.319
32	794.33	36716.4	2946.59	36834.4	4.58831	146.359
33	630.96	37113.6	2988.58	37233.7	4.60382	148.39
34	501.19	37542.3	3049.27	37666	4.64349	150.475
35	398.11	37963.6	3117.63	38091.4	4.69467	152.555
36	316.23	38385.6	3204.71	38519.1	4.77241	154.645
37	251.19	38827	3302.38	38967.1	4.86152	156.41
38	199.53	39282.5	3417	39430.8	4.97138	164.29
39	158.49	39728.3	3539.33	39885.7	5.09094	166.345
40	125.89	40228.4	3687.05	40397	5.23669	168.475
41	100	40765.6	3850.83	40947.1	5.3963	175.645
42	79.433	41303.9	4023.14	41499.3	5.56326	177.655
43	63.096	41817.3	4229.36	42030.6	5.77521	186.27
44	50.119	42448.1	4437.05	42679.4	5.96739	188.325
45	39.811	43068.1	4687.18	43322.4	6.21116	198.945
46	31.623	43701	4953.02	43980.7	6.46625	201.42
47	25.119	44367.7	5254.62	44677.8	6.75426	209.216
48	19.953	45083.5	5580.45	45427.6	7.05619	211.826
49	15.849	45849.7	5951.51	46234.3	7.39592	214.446
50	12.589	46615.3	6353.92	47046.4	7.76189	222.121
51	10	47475.2	6812.5	47961.5	8.16598	225.286
52	7.9433	48321	7322.93	48872.7	8.61747	228.436
53	6.3096	49279.8	7903.24	49909.5	9.11122	235.601
54	5.0119	50248.7	8558	50972.3	9.66546	244.121
55	3.9811	51303.8	9310.32	52141.8	10.2858	247.181
56	3.1623	52416.4	10174.3	53394.7	10.9849	250.201
57	2.5119	53623.1	11174.9	54775.1	11.7718	253.656
58	1.9953	54871.2	12391.2	56252.9	12.7253	262.222
59	1.5849	56275.4	13692	57917.1	13.6746	265.652
60	1.2589	57773	15271.4	59757.3	14.8066	274.352
61	1	59358.7	17139.8	61783.7	16.1061	285.072
62	0.79433	61166.7	19346.2	64153.3	17.5514	288.942
63	0.63096	63057	21882.8	66746.1	19.1384	297.627
64	0.50119	65075.4	24941.2	69691.3	20.9702	308.027
65	0.39811	67339.4	28713.3	73205.5	23.0933	323.958
66	0.31623	70199.5	33030.1	77581.9	25.1978	334.093
67	0.25119	73186.5	38578.3	82731.8	27.7947	346.153
68	0.19953	76437.3	44751.1	88573.8	30.3473	354.633
69	0.15849	80729	52220.2	96146.3	32.8972	366.859
70	0.12589	85473.1	60096.3	104485	35.1111	378.099
71	0.1	90317.9	70756.6	114734	38.0757	388.864