File: data/20200826/Z_p39_1.txt
Index	Frequency (Hz)	Z' (Ω)	-Z'' (Ω)	Z (Ω)	-Phase (°)	Time (s)
1	1000000	2587.86	1962.88	3248.06	37.1802	12.734
2	794330	2904.52	1836.76	3436.56	32.3084	14.1991
3	630960	3259.88	1767.88	3708.4	28.4716	15.6291
4	501190	3613.85	1664.12	3978.59	24.7252	17.1491
5	398110	3958.97	1546.12	4250.17	21.3324	21.3442
6	316230	4227.29	1421.24	4459.81	18.583	22.6792
7	251190	4389.92	1248.28	4563.94	15.8732	26.7343
8	199530	4603.59	1133.59	4741.1	13.8334	28.0493
9	158490	4780.14	1014.08	4886.53	11.9774	29.4393
10	125890	4922.8	896.431	5003.76	10.3204	30.7744
11	100000	5033.61	785.759	5094.57	8.8724	32.4244
12	79433	5125.69	686.059	5171.4	7.62357	35.3094
13	63096	5202.49	599.002	5236.86	6.56798	37.0995
14	50119	5263.3	522.757	5289.2	5.67207	38.7945
15	39811	5316.4	454.937	5335.83	4.89101	40.2695
16	31623	5356.72	396.938	5371.41	4.23793	41.6496
17	25119	5393.24	351.788	5404.7	3.73198	43.0246
18	19953	5424.79	315.922	5433.98	3.33296	44.4396
19	15849	5458.22	284.71	5465.64	2.98594	46.2997
20	12589	5483.51	259.072	5489.62	2.70496	47.6397
21	10000	5510.37	238.398	5515.53	2.47727	49.0697
22	7943.3	5536.01	222.385	5540.47	2.30037	50.5397
23	6309.6	5557.57	208.783	5561.49	2.15144	51.8698
24	5011.9	5584.22	198.454	5587.75	2.03534	53.1998
25	3981.1	5604.21	190.667	5607.46	1.94857	54.5548
26	3162.3	5626.14	184.156	5629.15	1.87475	55.9548
27	2511.9	5649.08	179.774	5651.94	1.82274	57.4099
28	1995.3	5673.39	176.469	5676.13	1.78159	58.9299
29	1584.9	5693.79	174.369	5696.46	1.7541	60.1249
30	1258.9	5715.31	172.027	5717.89	1.72404	61.4399
31	1000	5738.82	172.039	5741.4	1.7171	62.82
32	794.33	5761.61	172.124	5764.18	1.71116	64.99
33	630.96	5784.51	172.683	5787.09	1.70993	66.405
34	501.19	5805.88	173.955	5808.48	1.71618	68.2701
35	398.11	5830.63	175.908	5833.28	1.72807	69.9301
36	316.23	5854.24	180.088	5857.01	1.76197	74.9502
37	251.19	5880.09	186.976	5883.06	1.82129	76.3252
38	199.53	5901.61	193.453	5904.78	1.87747	78.3152
39	158.49	5927.06	202.575	5930.53	1.95749	81.0453
40	125.89	5954.02	214.033	5957.87	2.05876	82.5403
41	100	5981.77	229.891	5986.19	2.20091	84.0103
42	79.433	6007.57	246.456	6012.62	2.3492	87.7354
43	63.096	6034.8	264.966	6040.61	2.51404	90.2105
44	50.119	6096.83	298.403	6104.13	2.80204	92.6405
45	39.811	6107.81	316.546	6116.01	2.96678	102.281
46	31.623	6144.92	343.506	6154.51	3.19955	104.671
47	25.119	6190.05	380.644	6201.74	3.51885	107.311
48	19.953	6235.71	415.633	6249.55	3.81333	110.311
49	15.849	6295.21	458.427	6311.88	4.16501	113.376
50	12.589	6352.25	504.879	6372.28	4.54434	115.896
51	10	6418.44	546.433	6441.66	4.86613	118.246
52	7.9433	6486.49	601.25	6514.29	5.29576	120.916
53	6.3096	6560.68	661.379	6593.93	5.75651	124.721
54	5.0119	6635.63	724.753	6675.09	6.23322	127.411
55	3.9811	6714.07	800.977	6761.68	6.80313	129.976
56	3.1623	6800.04	892.129	6858.31	7.47422	133.496
57	2.5119	6884.72	999.008	6956.83	8.25628	136.406
58	1.9953	7062.72	1143.23	7154.64	9.19465	140.186
59	1.5849	7038.47	1218.5	7143.17	9.82171	143.991
60	1.2589	7171.14	1502.94	7326.94	11.8368	146.912
61	1	7290.75	1704.38	7487.32	13.1579	153.297
62	0.79433	7423.58	1986.68	7684.82	14.9823	157.787
63	0.63096	7548.25	2312.28	7894.47	17.0315	161.517
64	0.50119	7679.49	2739.45	8153.48	19.6325	165.502
65	0.39811	7860.2	3240.78	8502.08	22.4065	170.002
66	0.31623	8010.59	3886.43	8903.59	25.8809	174.767
67	0.25119	8283.36	4695.3	9521.55	29.5461	180.237
68	0.19953	8466.15	5676.81	10193.2	33.843	186.937
69	0.15849	8771.67	6867.64	11140.3	38.0586	194.302
70	0.12589	9151.36	8213.53	12296.7	41.9086	202.888
71	0.1	9446.05	9927.87	13703.7	46.4246	213.533