File: data/20200826/Z_p30_1.txt
Index	Frequency (Hz)	Z' (Ω)	-Z'' (Ω)	Z (Ω)	-Phase (°)	Time (s)
1	1000000	3838.74	6475.86	7528.13	59.3415	34.3874
2	794330	5306.86	6526.64	8411.89	50.8852	36.5974
3	630960	6944.97	6997.26	9858.72	45.2149	38.7625
4	501190	8572.37	7369.08	11304.4	40.6834	42.0975
5	398110	10586.4	8170.53	13372.7	37.6607	50.6827
6	316230	12102.2	8356.46	14707	34.6246	52.9127
7	251190	13501.3	8087.32	15738.1	30.9218	60.6529
8	199530	15001.8	8009.89	17006.2	28.099	62.8579
9	158490	16427.2	7806.92	18188	25.419	65.203
10	125890	17756.6	7498.76	19275.1	22.8948	67.143
11	100000	18973.2	7124.99	20266.9	20.5826	69.238
12	79433	20099.1	6709.3	21189.3	18.4596	71.4781
13	63096	21156.7	6278.69	22068.7	16.5293	74.0431
14	50119	22017.5	5773.6	22762	14.6937	76.1732
15	39811	22844	5325.75	23456.6	13.1233	78.7882
16	31623	23530.3	4867.17	24028.4	11.6866	81.1483
17	25119	24125.4	4440.84	24530.7	10.4299	83.6683
18	19953	24694.4	4113.05	25034.6	9.45627	86.1583
19	15849	25208.9	3760.86	25487.9	8.48525	89.3734
20	12589	25657.5	3452.95	25888.8	7.66475	107.714
21	10000	26133.7	3201.88	26329.1	6.98503	130.404
22	7943.3	26523.7	2990.51	26691.7	6.43285	137.309
23	6309.6	26882.8	2809.81	27029.2	5.96694	147.774
24	5011.9	27236.4	2662.45	27366.2	5.58312	151.505
25	3981.1	27549.2	2536.74	27665.7	5.26099	157.24
26	3162.3	27869.7	2437.28	27976.1	4.99796	159.51
27	2511.9	28157.4	2356.44	28255.8	4.78383	162.14
28	1995.3	28463.4	2297.38	28555.9	4.61455	164.165
29	1584.9	28756.8	2254.55	28845.1	4.48285	167.34
30	1258.9	29070.6	2224.48	29155.6	4.37575	170.36
31	1000	29371.7	2206.31	29454.4	4.29581	172.25
32	794.33	29660	2194.78	29741.1	4.23206	174.255
33	630.96	29978.8	2193.48	30058.9	4.18474	177.75
34	501.19	30293.3	2198.48	30373	4.15087	180.27
35	398.11	30597.7	2206.09	30677.1	4.12388	182.275
36	316.23	30920.1	2218.55	30999.6	4.104	184.405
37	251.19	31256.8	2233.62	31336.5	4.08743	186.75
38	199.53	31576.2	2253.38	31656.5	4.08189	189.27
39	158.49	31913.8	2272.23	31994.6	4.07252	191.885
40	125.89	32238.3	2286.98	32319.4	4.05775	197.255
41	100	32567.4	2301.57	32648.6	4.04242	199.855
42	79.433	32916.5	2318.54	32998.1	4.02908	203.306
43	63.096	33249.7	2333	33331.4	4.01363	205.781
44	50.119	33606.7	2338.22	33688	3.98	207.926
45	39.811	33968.6	2340.72	34049.1	3.94193	220.181
46	31.623	34321.7	2338.2	34401.2	3.89732	231.591
47	25.119	34679.3	2327.58	34757.3	3.83977	234.171
48	19.953	35034.2	2309.84	35110.3	3.77211	238.341
49	15.849	35371.2	2284.07	35444.9	3.6947	241.011
50	12.589	35723.9	2252.79	35794.8	3.60836	244.356
51	10	36057.9	2219.4	36126.1	3.52217	247.556
52	7.9433	36384.2	2170.32	36448.9	3.41365	252.671
53	6.3096	36690.2	2134.26	36752.3	3.32912	255.956
54	5.0119	36992.6	2095.86	37051.9	3.24269	259.432
55	3.9811	37274.5	2060.61	37331.4	3.16421	263.307
56	3.1623	37545.6	2037.28	37600.8	3.10591	267.277
57	2.5119	37767.5	2017.99	37821.4	3.05851	270.707
58	1.9953	38046.7	2059.42	38102.4	3.09832	279.037
59	1.5849	38239.2	2067.97	38295	3.09554	283.077
60	1.2589	38481.8	2165.7	38542.7	3.22113	289.057
61	1	38680.8	2282.33	38748.1	3.37677	300.862
62	0.79433	38887.3	2440.95	38963.8	3.59173	305.427
63	0.63096	39084.4	2644.67	39173.8	3.87106	311.808
64	0.50119	39277.7	2946.96	39388.1	4.2908	317.213
65	0.39811	39497.9	3320.75	39637.2	4.80578	323.923
66	0.31623	39718.3	3853.79	39904.8	5.54195	334.998
67	0.25119	39922.8	4545.98	40180.8	6.49625	344.503
68	0.19953	40158.2	5271.08	40502.6	7.47778	352.208
69	0.15849	40454.2	6407.99	40958.6	9.00093	360.823
70	0.12589	40785.4	7609.03	41489.1	10.5678	370.469
71	0.1	41274.5	9240.66	42296.3	12.6194	382.104