File: data/20200826/Z_p36_1.txt
Index	Frequency (Hz)	Z' (Ω)	-Z'' (Ω)	Z (Ω)	-Phase (°)	Time (s)
1	1000000	3574.93	3136.27	4755.66	41.2603	19.8532
2	794330	4148.25	2871.85	5045.35	34.695	21.9182
3	630960	4742.66	2770.21	5492.44	30.2894	24.4532
4	501190	5307.02	2613.06	5915.45	26.2146	26.9383
5	398110	5943.14	2421.81	6417.64	22.1708	45.4536
6	316230	6407.09	2249.29	6790.44	19.3443	47.2587
7	251190	6624.47	1957.68	6907.69	16.4636	54.4388
8	199530	6956.92	1778.5	7180.65	14.3402	56.7438
9	158490	7228.77	1592.15	7402.03	12.4212	59.4439
10	125890	7453.35	1410.98	7585.73	10.7197	62.4739
11	100000	7629.56	1238.9	7729.5	9.22324	65.379
12	79433	7781.79	1082.44	7856.72	7.919	67.389
13	63096	7904.65	941.172	7960.49	6.78998	69.9141
14	50119	7999.04	818.776	8040.83	5.8444	73.2441
15	39811	8084.28	709.764	8115.38	5.01745	75.5992
16	31623	8145.91	614.795	8169.08	4.31609	77.9092
17	25119	8198.69	539.454	8216.42	3.7645	81.1893
18	19953	8249.76	474.738	8263.41	3.2935	83.6643
19	15849	8297.39	418.338	8307.93	2.88629	88.2694
20	12589	8332.78	374.147	8341.18	2.57089	90.6195
21	10000	8370.06	336.977	8376.84	2.30547	93.5345
22	7943.3	8402.96	305.165	8408.49	2.07986	103.785
23	6309.6	8434.67	276.039	8439.18	1.87443	107.775
24	5011.9	8462.32	255.256	8466.17	1.72774	109.925
25	3981.1	8487.09	236.847	8490.39	1.59852	111.865
26	3162.3	8519.97	221.705	8522.85	1.4906	114.095
27	2511.9	8540.52	210.01	8543.1	1.40861	116.195
28	1995.3	8565.7	198.235	8567.99	1.32575	118.41
29	1584.9	8590.05	188.399	8592.12	1.25642	122.74
30	1258.9	8607.83	179.799	8609.71	1.19661	125.6
31	1000	8628.12	171.876	8629.83	1.14121	136.385
32	794.33	8653.16	165.697	8654.74	1.09701	140.125
33	630.96	8673.76	160.189	8675.24	1.05803	143.425
34	501.19	8694.46	155.248	8695.84	1.02296	145.16
35	398.11	8712.07	149.14	8713.34	0.980735	147.326
36	316.23	8733.82	145.523	8735.03	0.954575	149.191
37	251.19	8755.47	143.501	8756.65	0.938989	152.256
38	199.53	8773.05	145.823	8774.26	0.952265	154.281
39	158.49	8792.1	144.061	8793.28	0.938725	159.506
40	125.89	8812.83	147.979	8814.07	0.961984	168.151
41	100	8829.06	152.858	8830.38	0.991863	171.096
42	79.433	8843.76	160.374	8845.21	1.0389	173.276
43	63.096	8883.31	164.829	8884.84	1.063	179.551
44	50.119	8890.9	180.907	8892.74	1.16566	210.752
45	39.811	8904.46	184.759	8906.38	1.18866	222.197
46	31.623	8922.19	199.141	8924.41	1.27862	224.867
47	25.119	8941.1	218.505	8943.77	1.39993	229.287
48	19.953	8969.84	240.862	8973.07	1.53816	234.162
49	15.849	8996.2	261.426	8999.99	1.66453	237.107
50	12.589	9021.12	287.368	9025.7	1.82454	241.122
51	10	9049.42	319.04	9055.04	2.01914	248.017
52	7.9433	9077.96	365.772	9085.32	2.30733	250.837
53	6.3096	9115.98	409.479	9125.18	2.57193	253.967
54	5.0119	9149.15	468.338	9161.12	2.93037	257.708
55	3.9811	9184.06	536.506	9199.72	3.34325	260.313
56	3.1623	9232.4	630.129	9253.88	3.90449	262.908
57	2.5119	9244.9	747.758	9275.09	4.62421	265.638
58	1.9953	9267.66	884.378	9309.76	5.45101	268.373
59	1.5849	9392.98	981.03	9444.08	5.96251	271.538
60	1.2589	9444.54	1198.53	9520.29	7.23227	274.728
61	1	9541.79	1415.97	9646.28	8.44089	280.503
62	0.79433	9634.64	1688.63	9781.5	9.94106	285.223
63	0.63096	9735.33	2017.6	9942.2	11.7085	290.058
64	0.50119	9829.51	2426.61	10124.6	13.8673	294.083
65	0.39811	9918.67	2906	10335.6	16.3297	298.478
66	0.31623	10054.7	3543.7	10660.9	19.4145	303.453
67	0.25119	10195	4284.17	11058.6	22.7932	310.139
68	0.19953	10512.1	5222.76	11738	26.4198	317.134
69	0.15849	10590.2	6316.55	12330.9	30.8141	326.154
70	0.12589	10850	7704.01	13306.9	35.3765	335.684
71	0.1	11311.5	9532.65	14792.6	40.1221	346.099