File: data/20200826/Z_p32_1.txt
Index	Frequency (Hz)	Z' (Ω)	-Z'' (Ω)	Z (Ω)	-Phase (°)	Time (s)
1	1000000	3216.69	6618.44	7358.73	64.0793	25.7022
2	794330	4763.31	7074.82	8528.9	56.0485	27.6273
3	630960	6390.06	7860.67	10130.3	50.8918	32.0723
4	501190	8082.23	8625.73	11820.6	46.8631	34.3474
5	398110	10283.1	9950.72	14309.4	44.0589	44.5376
6	316230	12159.5	10737.4	16221.8	41.4459	47.8226
7	251190	13939.3	10661.9	17549.4	37.4116	58.0478
8	199530	15920.5	10963.3	19330.2	34.5523	61.2879
9	158490	17951.1	11051.6	21080.3	31.6185	64.0329
10	125890	19922.3	10983.4	22749.4	28.8684	66.148
11	100000	21803.2	10755.4	24311.7	26.257	69.133
12	79433	23640.9	10398.2	25826.7	23.7417	71.1081
13	63096	25334.8	9915.68	27206.2	21.3746	74.9581
14	50119	26877.2	9374.11	28465	19.2275	77.2682
15	39811	28406.9	8762.96	29727.7	17.144	79.6582
16	31623	29680.9	8036.79	30749.7	15.1509	81.7583
17	25119	30779.3	7458.26	31670	13.621	84.2933
18	19953	31817.4	6847.3	32545.9	12.1452	86.3133
19	15849	32697.1	6234.95	33286.2	10.796	88.4684
20	12589	33526.1	5710.21	34008.9	9.66594	90.8684
21	10000	34281.3	5196.56	34673	8.61959	96.0485
22	7943.3	34911.5	4787.04	35238.2	7.80766	99.8536
23	6309.6	35494.8	4430.3	35770.2	7.11461	103.244
24	5011.9	35986.1	4120.4	36221.2	6.53191	106.724
25	3981.1	36500.3	3868.25	36704.7	6.04954	109.804
26	3162.3	36953.7	3662.54	37134.7	5.6602	113.519
27	2511.9	37380.9	3493.98	37543.8	5.33989	116.654
28	1995.3	37821.1	3368.22	37970.7	5.08915	118.884
29	1584.9	38224.1	3274.37	38364.1	4.89614	121.854
30	1258.9	38629	3211.11	38762.2	4.7519	124.269
31	1000	39056.5	3172.66	39185.1	4.64409	127.589
32	794.33	39458.9	3158.25	39585.1	4.57613	129.839
33	630.96	39886.6	3165.55	40012	4.5377	131.779
34	501.19	40324.4	3190.82	40450.4	4.52432	134.449
35	398.11	40752.6	3231.17	40880.5	4.53335	136.834
36	316.23	41173.7	3288.92	41304.9	4.56704	139.374
37	251.19	41640.2	3361.56	41775.7	4.6154	141.774
38	199.53	42094.3	3448.84	42235.4	4.68385	144.729
39	158.49	42581.3	3550.16	42729	4.76594	146.944
40	125.89	43058.2	3664.72	43213.9	4.86476	149.81
41	100	43549.6	3804.09	43715.4	4.99216	152.835
42	79.433	44042.8	3957.23	44220.2	5.13422	155.645
43	63.096	44599.2	4146.19	44791.5	5.31127	158.21
44	50.119	45152.5	4340.19	45360.6	5.49057	160.72
45	39.811	45726.5	4574.6	45954.7	5.71302	170.97
46	31.623	46318.7	4837.08	46570.6	5.96181	173.175
47	25.119	46949.5	5145.98	47230.7	6.25503	175.84
48	19.953	47606	5502.76	47923	6.59354	179.175
49	15.849	48298.1	5918	48659.4	6.98566	182.8
50	12.589	49032.7	6397.11	49448.2	7.43318	186.105
51	10	49821.4	6936.78	50302	7.9265	190.42
52	7.9433	50664.7	7572.79	51227.5	8.501	193.875
53	6.3096	51566.3	8299.3	52229.9	9.14301	196.71
54	5.0119	52502.9	9150.1	53294.3	9.8861	199.61
55	3.9811	53553.4	10140.9	54505.1	10.7226	203.581
56	3.1623	54732.2	11301.8	55886.9	11.6672	206.816
57	2.5119	56000.4	12644.7	57410.3	12.7238	210.221
58	1.9953	57382.4	14239.9	59122.9	13.9368	213.866
59	1.5849	58961.3	16004.2	61094.7	15.1862	217.456
60	1.2589	60651.2	18049.6	63280	16.5728	220.996
61	1	62573.1	20491.1	65842.9	18.1323	227.691
62	0.79433	64691.6	23290	68756.3	19.7997	231.316
63	0.63096	67143.1	26466.8	72171.2	21.5136	235.391
64	0.50119	69789.9	30307.8	76086.7	23.474	240.426
65	0.39811	72737.1	34821.1	80642.4	25.5816	245.481
66	0.31623	75719.9	40087	85676.6	27.8973	251.271
67	0.25119	79661.3	46661.9	92321.5	30.3598	257.227
68	0.19953	84119.5	53446.4	99662.5	32.4304	264.462
69	0.15849	88950.4	62763.1	108864	35.2067	272.952
70	0.12589	94761.4	72996.3	119617	37.6076	282.287
71	0.1	101272	84423.6	131846	39.8157	293.422