File: data/20200826/Z_p37_1.txt
Index	Frequency (Hz)	Z' (Ω)	-Z'' (Ω)	Z (Ω)	-Phase (°)	Time (s)
1	1000000	3799.34	3604.31	5236.99	43.491	29.7634
2	794330	4451.6	3323.6	5555.46	36.7453	32.3634
3	630960	5175.65	3206.94	6088.66	31.7832	34.6035
4	501190	5856.36	3082.87	6618.24	27.763	36.8385
5	398110	6641.01	2908.72	7250.08	23.6531	44.4287
6	316230	7144.26	2675.7	7628.88	20.5322	46.7187
7	251190	7486.73	2397.98	7861.39	17.7601	57.1239
8	199530	7893.84	2195.89	8193.58	15.5454	63.664
9	158490	8236.64	1983.52	8472.11	13.54	66.7141
10	125890	8523.99	1770.74	8705.97	11.7355	70.1191
11	100000	8753.1	1570.29	8892.84	10.1706	76.0992
12	79433	8949.04	1380.31	9054.87	8.76827	82.8544
13	63096	9110.37	1206.4	9189.9	7.54325	87.1344
14	50119	9241.54	1063.89	9302.57	6.56703	91.3145
15	39811	9358.23	926.643	9403.99	5.65494	95.2046
16	31623	9436.39	803.611	9470.55	4.86761	98.6197
17	25119	9522.24	708.23	9548.54	4.25362	102.16
18	19953	9587.82	627.493	9608.33	3.74449	106.36
19	15849	9654.44	558.602	9670.59	3.31142	109.07
20	12589	9705.68	501.704	9718.63	2.95909	111.235
21	10000	9754.37	449.66	9764.73	2.63937	121.85
22	7943.3	9795.25	407.867	9803.74	2.38438	124.37
23	6309.6	9845.43	374.368	9852.54	2.1776	127.61
24	5011.9	9874.59	342.806	9880.54	1.98828	129.29
25	3981.1	9915	321.29	9920.21	1.85599	130.725
26	3162.3	9947.74	299.05	9952.23	1.72191	132.055
27	2511.9	9982.44	283.84	9986.48	1.6287	133.515
28	1995.3	10017.3	268.79	10020.9	1.53703	134.905
29	1584.9	10043.1	258.649	10046.4	1.47527	136.135
30	1258.9	10075.3	249.471	10078.4	1.41839	137.55
31	1000	10103.2	241.433	10106.1	1.36891	138.99
32	794.33	10134.7	231.871	10137.4	1.31064	140.7
33	630.96	10166.3	227.576	10168.9	1.28237	142.01
34	501.19	10198.3	223.596	10200.8	1.256	143.31
35	398.11	10229.3	219.598	10231.6	1.22981	144.576
36	316.23	10258.9	218.368	10261.2	1.2194	145.856
37	251.19	10288.2	218.618	10290.6	1.21731	147.191
38	199.53	10306.7	224.973	10309.2	1.25044	148.686
39	158.49	10337	230.446	10339.6	1.2771	150.021
40	125.89	10367.4	239.372	10370.1	1.32267	151.456
41	100	10400.8	251.161	10403.8	1.38333	153.156
42	79.433	10432.5	263.79	10435.8	1.44844	155.996
43	63.096	10460.6	282.193	10464.4	1.54528	159.346
44	50.119	10434.2	248.729	10437.2	1.36555	161.331
45	39.811	10531.8	322.83	10536.7	1.75573	172.586
46	31.623	10576	348.681	10581.7	1.88831	174.256
47	25.119	10611	382.576	10617.9	2.06489	176.326
48	19.953	10658.2	426.282	10666.7	2.29038	179.291
49	15.849	10707.4	463.937	10717.4	2.481	181.606
50	12.589	10761.3	509.199	10773.3	2.70909	183.696
51	10	10814	574.087	10829.2	3.03884	186.601
52	7.9433	10879.7	633.32	10898.2	3.33148	189.886
53	6.3096	10951.4	720.872	10975.1	3.76603	192.966
54	5.0119	11011.4	805.028	11040.8	4.18136	196.856
55	3.9811	11095.7	902.152	11132.3	4.6483	199.787
56	3.1623	11172.9	1031.51	11220.4	5.27474	202.702
57	2.5119	11270.5	1221.56	11336.5	6.18589	205.747
58	1.9953	11363.5	1429.68	11453.1	7.17085	208.967
59	1.5849	11271.5	1599.78	11384.4	8.07812	212.232
60	1.2589	11553.5	1829.49	11697.5	8.99802	215.192
61	1	11765.5	2168.82	11963.7	10.4445	220.852
62	0.79433	11952	2552	12221.4	12.0528	224.427
63	0.63096	12141.9	2990.44	12504.7	13.8361	229.467
64	0.50119	12333.4	3561.75	12837.4	16.1082	238.392
65	0.39811	12517.5	4249.74	13219.2	18.7526	243.977
66	0.31623	12797.6	5114.86	13781.9	21.7853	248.917
67	0.25119	13169.6	6031.72	14485.2	24.6079	254.378
68	0.19953	13626	7269.19	15443.7	28.079	260.858
69	0.15849	13979.9	8782.99	16510	32.1393	269.403
70	0.12589	14698.3	10507.6	18067.9	35.5605	277.918
71	0.1	15147.9	12493.9	19635.5	39.5156	288.188