File: data/20200826/Z_p38_1.txt
Index	Frequency (Hz)	Z' (Ω)	-Z'' (Ω)	Z (Ω)	-Phase (°)	Time (s)
1	1000000	3512.11	3216.81	4762.64	42.4872	15.2991
2	794330	4091.89	2997.87	5072.55	36.2279	16.8941
3	630960	4733.56	2891.53	5546.85	31.419	18.3541
4	501190	5357.26	2759.61	6026.25	27.2537	20.3692
5	398110	6000.41	2592.23	6536.41	23.3648	25.6443
6	316230	6507.61	2384.97	6930.88	20.1273	26.9143
7	251190	6755.72	2130.73	7083.77	17.5051	31.3294
8	199530	7116.57	1948.05	7378.38	15.3088	32.6944
9	158490	7418.21	1755.1	7623.01	13.311	34.4494
10	125890	7676.23	1566.69	7834.48	11.5354	35.7695
11	100000	7878.61	1385.21	7999.45	9.97177	37.2145
12	79433	8052.53	1220.32	8144.47	8.6173	38.5095
13	63096	8187.08	1063.25	8255.83	7.39956	40.0945
14	50119	8301.57	938.923	8354.5	6.45284	41.4596
15	39811	8401.29	814.653	8440.69	5.53852	42.8746
16	31623	8478.09	710.936	8507.85	4.79336	44.2646
17	25119	8546.43	626.676	8569.37	4.19377	47.1997
18	19953	8614.77	556.728	8632.74	3.69759	49.7697
19	15849	8669.7	492.968	8683.7	3.2544	52.2998
20	12589	8713.64	443.402	8724.91	2.91304	54.6048
21	10000	8758.95	398.876	8768.03	2.6074	58.1049
22	7943.3	8800.27	361.228	8807.68	2.35052	60.0099
23	6309.6	8839.35	328.1	8845.44	2.12574	62.1149
24	5011.9	8873.19	302.73	8878.35	1.95402	64.45
25	3981.1	8907	279.642	8911.39	1.79825	66.64
26	3162.3	8934.47	260.309	8938.26	1.66886	69.4051
27	2511.9	8964.82	243.364	8968.12	1.555	71.7951
28	1995.3	8989.05	229.354	8991.97	1.46157	76.0552
29	1584.9	9018.85	216.403	9021.45	1.37452	78.8353
30	1258.9	9041.36	204.386	9043.67	1.29499	80.8553
31	1000	9068.39	194.987	9070.48	1.23177	82.7253
32	794.33	9091.92	186.207	9093.82	1.17328	85.7204
33	630.96	9118.36	175.465	9120.05	1.10241	87.9454
34	501.19	9167.32	167.405	9168.84	1.04616	91.7305
35	398.11	9163.83	160.892	9165.24	1.00585	99.0056
36	316.23	9180.57	154.875	9181.88	0.966482	101.076
37	251.19	9205.16	146.785	9206.33	0.913556	103.581
38	199.53	9220.66	147.1	9221.83	0.913977	105.601
39	158.49	9239.35	141.85	9240.44	0.879583	107.536
40	125.89	9261.45	141.916	9262.54	0.877893	109.996
41	100	9283.2	141.88	9284.28	0.875614	112.081
42	79.433	9296.76	141.841	9297.84	0.874097	114.231
43	63.096	9318.89	141.847	9319.97	0.872056	116.601
44	50.119	9285.69	125.571	9286.54	0.774769	118.846
45	39.811	9351.7	151.047	9352.92	0.925351	128.206
46	31.623	9367.92	159.345	9369.27	0.974487	132.801
47	25.119	9384.64	163.442	9386.06	0.997757	142.491
48	19.953	9401.44	171.349	9403	1.04415	145.526
49	15.849	9424.73	192.32	9426.7	1.16901	147.997
50	12.589	9432.69	204.589	9434.91	1.24252	151.562
51	10	9456.26	230.309	9459.06	1.39518	155.607
52	7.9433	9471.04	256.869	9474.52	1.55357	160.527
53	6.3096	9498.33	289.459	9502.74	1.74553	164.042
54	5.0119	9513.26	328.238	9518.92	1.9761	167.337
55	3.9811	9545.61	385.235	9553.38	2.31105	172.292
56	3.1623	9573.26	449.007	9583.79	2.68533	175.482
57	2.5119	9565.76	562.694	9582.3	3.36647	179.547
58	1.9953	9568.96	636.773	9590.12	3.80718	183.762
59	1.5849	9677.91	727.168	9705.19	4.29695	191.282
60	1.2589	9723.63	885.241	9763.85	5.20188	198.542
61	1	9774.23	1057.76	9831.29	6.17648	205.068
62	0.79433	9848.2	1277.37	9930.7	7.39035	210.268
63	0.63096	9905.63	1516.39	10021	8.70348	214.923
64	0.50119	9997.26	1833.06	10163.9	10.3901	220.743
65	0.39811	10079.6	2227.14	10322.7	12.4596	227.698
66	0.31623	10189.5	2706.31	10542.8	14.8742	234.128
67	0.25119	10389.6	3289.28	10897.9	17.5674	241.118
68	0.19953	10571.7	4021.61	11310.8	20.8275	249.578
69	0.15849	10841.7	4872.63	11886.4	24.2007	256.929
70	0.12589	11038.9	5799.28	12469.5	27.7151	265.399
71	0.1	11382.9	7231.88	13486	32.4289	279.284