File: data/20200826/Z_p33_1.txt
Index	Frequency (Hz)	Z' (Ω)	-Z'' (Ω)	Z (Ω)	-Phase (°)	Time (s)
1	1000000	3481.54	3263.42	4771.91	43.1478	14.3351
2	794330	4077.58	3048.3	5091.05	36.7809	15.8051
3	630960	4724.32	2959.66	5574.84	32.066	17.5101
4	501190	5365.29	2834.86	6068.17	27.8507	19.1051
5	398110	6051.62	2687.89	6621.69	23.9489	24.1702
6	316230	6525.31	2523.95	6996.43	21.1462	25.6653
7	251190	6847.6	2227.55	7200.8	18.0199	29.7303
8	199530	7229.31	2040.67	7511.81	15.7632	31.1104
9	158490	7546.1	1842.04	7767.67	13.7179	32.5654
10	125890	7817.21	1645.94	7988.61	11.8902	34.0404
11	100000	8033.43	1457.33	8164.54	10.2821	35.5055
12	79433	8215.52	1282.45	8315.01	8.87231	36.9855
13	63096	8363.8	1126.31	8439.29	7.66961	40.2155
14	50119	8489.68	985.934	8546.74	6.62427	45.2006
15	39811	8591.28	857.278	8633.95	5.69837	47.4557
16	31623	8671.63	743.33	8703.43	4.8994	49.2657
17	25119	8744.04	657.508	8768.72	4.30026	51.4607
18	19953	8809.39	582.88	8828.66	3.7855	53.7858
19	15849	8867.09	517.427	8882.17	3.33963	57.1559
20	12589	8918.85	460.055	8930.71	2.95283	59.3559
21	10000	8960.65	416.175	8970.31	2.65917	61.6159
22	7943.3	9007.7	377.193	9015.59	2.39783	65.686
23	6309.6	9047.49	342.654	9053.98	2.16891	67.836
24	5011.9	9086.83	317.398	9092.37	2.0005	69.7561
25	3981.1	9119.44	291.984	9124.11	1.83385	71.5011
26	3162.3	9154.89	274.294	9159	1.71615	75.8312
27	2511.9	9177.97	255.942	9181.54	1.59737	78.3412
28	1995.3	9224.73	242.226	9227.91	1.50415	82.3163
29	1584.9	9239.27	231.194	9242.16	1.43341	97.3866
30	1258.9	9265.78	221.362	9268.42	1.36855	99.0666
31	1000	9294.8	210.364	9297.18	1.29652	100.657
32	794.33	9316.38	201.696	9318.57	1.24024	102.482
33	630.96	9346.78	194.128	9348.8	1.18983	103.932
34	501.19	9371.79	190.268	9373.72	1.16307	114.967
35	398.11	9398.11	182.475	9399.88	1.11233	116.302
36	316.23	9420.84	179.795	9422.56	1.09335	118.017
37	251.19	9440.99	176.412	9442.64	1.07049	122.502
38	199.53	9470.69	175.516	9472.32	1.06171	125.917
39	158.49	9490.75	174.29	9492.35	1.05207	130.437
40	125.89	9516.41	176.223	9518.04	1.06087	138.672
41	100	9538.88	183.141	9540.64	1.09991	140.087
42	79.433	9565.68	189.996	9567.57	1.13788	142.457
43	63.096	9579.09	197.216	9581.12	1.17945	145.817
44	50.119	9584.08	214.069	9586.48	1.27954	147.943
45	39.811	9630.31	215.59	9632.72	1.28245	160.293
46	31.623	9659.84	237.809	9662.76	1.41024	162.028
47	25.119	9685.62	247.878	9688.79	1.46601	172.498
48	19.953	9705	269.154	9708.73	1.58861	175.968
49	15.849	9742.94	292.234	9747.32	1.71804	178.573
50	12.589	9778.84	323.129	9784.17	1.89258	181.913
51	10	9811.57	356.352	9818.04	2.08004	184.848
52	7.9433	9842.98	393.479	9850.84	2.28922	187.603
53	6.3096	9891.45	454.632	9901.89	2.63159	190.513
54	5.0119	9928.88	507.976	9941.86	2.92878	193.363
55	3.9811	9978.84	582.455	9995.83	3.34051	198.793
56	3.1623	10019.5	667.425	10041.7	3.81097	206.189
57	2.5119	10107.7	727.68	10133.9	4.11776	209.654
58	1.9953	10029.1	945.319	10073.6	5.38465	213.099
59	1.5849	10254.1	1132.78	10316.4	6.30397	217.694
60	1.2589	10301.2	1212.5	10372.3	6.71312	221.019
61	1	10405.1	1434.59	10503.5	7.85013	231.479
62	0.79433	10521.5	1688.32	10656.1	9.11617	236.849
63	0.63096	10655	1982.39	10837.8	10.5395	240.859
64	0.50119	10749.9	2364.56	11006.9	12.4053	245.239
65	0.39811	10895	2792.11	11247	14.3741	262.59
66	0.31623	11053.9	3353.67	11551.4	16.8775	268.885
67	0.25119	11256.7	4075.57	11971.8	19.9032	274.98
68	0.19953	11561.4	4859.18	12541	22.7967	282.31
69	0.15849	11814.6	5890.12	13201.5	26.4983	290.27
70	0.12589	12099.6	7122.13	14040.1	30.4821	299.8
71	0.1	12517.7	8438.53	15096.4	33.985	310.536