File: data/20200826/Z_p35_1.txt
Index	Frequency (Hz)	Z' (Ω)	-Z'' (Ω)	Z (Ω)	-Phase (°)	Time (s)
1	1000000	3069.81	2697.78	4086.78	41.3093	31.1884
2	794330	3546.06	2538.33	4360.92	35.5957	34.0285
3	630960	4068.3	2461.47	4754.99	31.1755	38.6735
4	501190	4594	2367.21	5168.03	27.2613	41.1686
5	398110	5126.44	2223.51	5587.88	23.448	46.4787
6	316230	5530.76	2051.66	5899.03	20.3526	51.4588
7	251190	5769.36	1821.17	6049.98	17.519	57.2089
8	199530	6082.28	1662.51	6305.4	15.2876	60.2389
9	158490	6339.33	1493.17	6512.81	13.2539	63.484
10	125890	6559.16	1327.08	6692.06	11.438	65.409
11	100000	6728.38	1167.55	6828.93	9.84432	68.5541
12	79433	6872.85	1019.36	6948.04	8.43644	81.1293
13	63096	6985.97	888.098	7042.19	7.24492	84.4994
14	50119	7082.44	775.908	7124.81	6.25204	87.6094
15	39811	7158.99	669.217	7190.2	5.34045	91.0145
16	31623	7219.83	578.249	7242.95	4.57915	93.4646
17	25119	7274.14	508.854	7291.92	4.00154	96.0646
18	19953	7319.79	446.541	7333.4	3.49098	99.3397
19	15849	7362.06	394.508	7372.62	3.06735	101.68
20	12589	7399.61	349.051	7407.84	2.70073	104.005
21	10000	7431.62	313.561	7438.24	2.41604	106.64
22	7943.3	7463.45	285.016	7468.89	2.18696	109.955
23	6309.6	7491.98	260.659	7496.52	1.99261	112.61
24	5011.9	7516.41	240.436	7520.25	1.83217	115.53
25	3981.1	7542.59	223.628	7545.91	1.69824	117.935
26	3162.3	7566.58	208.821	7569.46	1.58084	120.21
27	2511.9	7589.92	198.101	7592.51	1.49511	122.38
28	1995.3	7610.15	187.945	7612.47	1.41472	125.91
29	1584.9	7635.1	179.702	7637.21	1.34828	129.01
30	1258.9	7655.3	172.285	7657.24	1.28924	131.825
31	1000	7680.31	165.346	7682.09	1.2333	134.955
32	794.33	7697.2	160.227	7698.86	1.19251	138.74
33	630.96	7721.98	154.426	7723.53	1.14566	141.005
34	501.19	7738.96	150.516	7740.42	1.11421	145.241
35	398.11	7759.14	145.734	7760.51	1.07602	147.746
36	316.23	7780.95	144.834	7782.3	1.06637	150.611
37	251.19	7798.56	141.713	7799.85	1.04104	153.356
38	199.53	7818.87	142.052	7820.16	1.04082	155.681
39	158.49	7838.52	141.915	7839.8	1.03722	158.026
40	125.89	7858.15	143.952	7859.47	1.04947	160.686
41	100	7880.76	148.16	7882.15	1.07705	164.106
42	79.433	7891.23	150.578	7892.66	1.09317	168.041
43	63.096	7908.8	158.261	7910.38	1.14638	171.421
44	50.119	7898.17	138.342	7899.38	1.00347	175.186
45	39.811	7950.92	167.977	7952.7	1.2103	185.031
46	31.623	7968.34	181.956	7970.42	1.30811	189.196
47	25.119	7988.87	192.981	7991.2	1.38378	198.457
48	19.953	8015.63	203.013	8018.2	1.45083	201.232
49	15.849	8033.89	227.318	8037.11	1.62074	203.812
50	12.589	8057.26	246.008	8061.01	1.74884	206.742
51	10	8084.23	274.144	8088.87	1.94221	209.252
52	7.9433	8112.47	301.9	8118.08	2.13124	211.892
53	6.3096	8141.65	336.549	8148.6	2.36707	214.762
54	5.0119	8167.46	378.587	8176.23	2.65393	217.787
55	3.9811	8212.02	433.944	8223.48	3.02484	221.447
56	3.1623	8253.66	496.986	8268.6	3.44585	224.972
57	2.5119	8274.96	540.179	8292.58	3.73489	228.037
58	1.9953	8298.64	670.157	8325.66	4.61691	231.947
59	1.5849	8530.85	726.79	8561.75	4.86958	235.577
60	1.2589	8453.19	900.763	8501.05	6.08243	238.752
61	1	8539.77	1049.21	8603.99	7.00433	247.472
62	0.79433	8625.24	1230.61	8712.59	8.11989	251.552
63	0.63096	8716.35	1450.01	8836.13	9.44497	258.458
64	0.50119	8822.15	1712.3	8986.79	10.984	264.318
65	0.39811	8912.45	2040.97	9143.15	12.8985	275.913
66	0.31623	9004.56	2434	9327.73	15.126	281.293
67	0.25119	9178.03	2928.95	9634.05	17.6992	287.408
68	0.19953	9310.21	3443.62	9926.65	20.2982	294.398
69	0.15849	9512.75	4141.04	10375	23.5242	302.293
70	0.12589	9695.02	5002.56	10909.6	27.2934	311.669
71	0.1	9850.71	6147.23	11611.4	31.9658	325.884