File: data/20200826/Z_p34_1.txt
Index	Frequency (Hz)	Z' (Ω)	-Z'' (Ω)	Z (Ω)	-Phase (°)	Time (s)
1	1000000	3645.35	3543.79	5083.99	44.1906	24.0532
2	794330	4314.91	3290.41	5426.35	37.328	26.4133
3	630960	5023.99	3223.78	5969.36	32.6874	29.9283
4	501190	5721.03	3102.32	6508.04	28.4695	33.2684
5	398110	6492.07	2936.37	7125.26	24.3373	41.0736
6	316230	7009.76	2690.95	7508.53	21.0011	43.5036
7	251190	7354.82	2430.61	7746.04	18.2876	59.6439
8	199530	7762.73	2228.14	8076.17	16.0151	72.0041
9	158490	8118.45	2017.17	8365.3	13.9536	81.7343
10	125890	8411.5	1806.48	8603.3	12.1209	84.9244
11	100000	8644.22	1602.31	8791.47	10.5013	88.3944
12	79433	8852.01	1412.97	8964.07	9.06915	90.3595
13	63096	9023	1245.03	9108.49	7.85631	92.4445
14	50119	9167.51	1095.1	9232.68	6.81194	115.31
15	39811	9280.27	950.974	9328.87	5.85083	124
16	31623	9374.04	829.731	9410.69	5.05828	126.84
17	25119	9453.67	731.318	9481.91	4.42349	128.725
18	19953	9524.4	648.958	9546.48	3.8979	130.81
19	15849	9593.34	579.342	9610.82	3.4559	132.325
20	12589	9644.99	514.779	9658.72	3.05513	133.99
21	10000	9696.78	459.923	9707.68	2.71553	135.69
22	7943.3	9766.01	420.233	9775.04	2.46393	144.37
23	6309.6	9806.24	383.596	9813.74	2.24013	146.235
24	5011.9	9834.22	350.722	9840.48	2.0425	150.726
25	3981.1	9870.76	323.357	9876.05	1.87629	153.476
26	3162.3	9911.37	303.888	9916.03	1.75617	155.496
27	2511.9	9945.13	283.343	9949.17	1.63195	160.096
28	1995.3	9979.45	267.902	9983.05	1.53776	163.541
29	1584.9	10010	253.21	10013.2	1.44902	165.711
30	1258.9	10044.6	238.905	10047.5	1.36249	166.986
31	1000	10068.5	227.009	10071	1.2916	168.336
32	794.33	10096.6	215.43	10098.9	1.22233	169.941
33	630.96	10127.9	207.826	10130	1.17556	173.516
34	501.19	10155.1	200.278	10157.1	1.12983	175.616
35	398.11	10184	193.042	10185.8	1.08593	177.736
36	316.23	10224.3	187.654	10226.1	1.05147	179.611
37	251.19	10252	183.088	10253.6	1.02313	185.321
38	199.53	10270.1	181.422	10271.7	1.01203	193.371
39	158.49	10286.7	180.753	10288.3	1.00667	195.186
40	125.89	10313.2	182.016	10314.8	1.0111	197.206
41	100	10337.1	184.943	10338.7	1.02498	201.012
42	79.433	10359.6	187.467	10361.3	1.03671	203.262
43	63.096	10379.3	190.856	10381.1	1.05344	204.852
44	50.119	10368.6	249.445	10371.6	1.37815	207.212
45	39.811	10433.5	215.496	10435.7	1.18323	221.652
46	31.623	10466.4	222.506	10468.8	1.21787	229.727
47	25.119	10486	236.53	10488.7	1.29219	231.632
48	19.953	10511.1	257.496	10514.3	1.40332	233.597
49	15.849	10546.8	279.322	10550.5	1.51707	237.012
50	12.589	10580.5	309.922	10585.1	1.67781	240.142
51	10	10600.9	350.966	10606.7	1.89621	242.627
52	7.9433	10641.4	398.576	10648.8	2.14503	246.207
53	6.3096	10679.9	443.378	10689.1	2.37727	249.302
54	5.0119	10718.1	500.357	10729.8	2.67282	252.717
55	3.9811	10755	588.967	10771.1	3.13451	257.073
56	3.1623	10825.6	677.365	10846.8	3.58036	260.278
57	2.5119	10842.9	770.775	10870.2	4.06608	265.933
58	1.9953	10991.1	937.749	11031	4.8766	272.088
59	1.5849	11065.8	1078.11	11118.1	5.56462	282.668
60	1.2589	11073.5	1207.19	11139.1	6.22159	287.548
61	1	11195.8	1475.82	11292.7	7.50937	295.468
62	0.79433	11320.3	1752.67	11455.2	8.80098	299.098
63	0.63096	11444.9	2091.25	11634.4	10.355	304.623
64	0.50119	11564.3	2470.5	11825.2	12.0589	310.269
65	0.39811	11698.5	3002.7	12077.7	14.3956	315.959
66	0.31623	11906	3575.41	12431.3	16.7151	322.674
67	0.25119	12113.1	4258.91	12840	19.3714	344.589
68	0.19953	12347.5	5158.91	13381.9	22.6757	353.589
69	0.15849	12676.6	6183.11	14104.1	26.0012	361.459
70	0.12589	13177	7515.37	15169.5	29.6978	374.86
71	0.1	13517.7	9018.09	16249.7	33.7085	386.29