File: data/20200826/Z_p43_1.txt
Index	Frequency (Hz)	Z' (Ω)	-Z'' (Ω)	Z (Ω)	-Phase (°)	Time (s)
1	1000000	2779.36	2197.19	3542.95	38.3277	45.9937
2	794330	3135.78	2060.47	3752.15	33.3082	48.2587
3	630960	3546.98	1991.84	4067.98	29.3168	50.4488
4	501190	3929.33	1897.37	4363.45	25.7746	52.8738
5	398110	4343.84	1783.53	4695.73	22.3225	60.904
6	316230	4635.4	1664.42	4925.17	19.7516	63.724
7	251190	4852.63	1478.54	5072.88	16.9454	71.8792
8	199530	5106.87	1361.54	5285.26	14.9284	75.6092
9	158490	5318.27	1237.29	5460.3	13.0968	79.0143
10	125890	5496.62	1113.63	5608.29	11.4532	82.7094
11	100000	5645.29	996.547	5732.57	10.0111	85.5044
12	79433	5771.7	888.783	5839.73	8.7542	87.2294
13	63096	5877	789.904	5929.85	7.65502	89.7295
14	50119	5971.01	704.935	6012.48	6.73314	93.5596
15	39811	6048.78	623.5	6080.83	5.88518	109.84
16	31623	6110.28	554.937	6135.42	5.18938	129.715
17	25119	6170.24	500.124	6190.48	4.63393	131.195
18	19953	6226.94	450.382	6243.21	4.13688	133.365
19	15849	6275.43	407.579	6288.65	3.71605	136.22
20	12589	6316.36	372.289	6327.32	3.37314	147.056
21	10000	6356.86	342.446	6366.08	3.08356	149.306
22	7943.3	6392.53	316.828	6400.37	2.83738	151.996
23	6309.6	6431.36	295.223	6438.13	2.62824	153.416
24	5011.9	6464.89	278.293	6470.88	2.46488	154.736
25	3981.1	6496.73	263.952	6502.09	2.32656	156.081
26	3162.3	6529.18	252.635	6534.07	2.21585	157.371
27	2511.9	6556.59	243.246	6561.1	2.12467	158.726
28	1995.3	6588.34	235.837	6592.56	2.05009	160.076
29	1584.9	6614.73	229.983	6618.73	1.99127	161.436
30	1258.9	6643.72	225.465	6647.55	1.94368	162.801
31	1000	6674.88	223.282	6678.62	1.91589	164.131
32	794.33	6703.02	220.805	6706.66	1.88671	165.611
33	630.96	6731.46	219.927	6735.05	1.87127	177.771
34	501.19	6760.29	219.816	6763.86	1.86236	186.686
35	398.11	6790.13	222.325	6793.77	1.87533	188.691
36	316.23	6818.43	225.392	6822.15	1.8933	191.806
37	251.19	6852.67	231.293	6856.57	1.93313	194.291
38	199.53	6879.48	236.785	6883.55	1.97129	213.762
39	158.49	6909.05	248.688	6913.52	2.06145	242.777
40	125.89	6938.31	259.924	6943.18	2.14542	258.473
41	100	6972.58	277.682	6978.11	2.28059	259.958
42	79.433	7007.32	296.995	7013.61	2.42694	261.398
43	63.096	7040.13	316.507	7047.24	2.57415	263.208
44	50.119	7081.62	329.997	7089.31	2.668	266.983
45	39.811	7123.17	373.044	7132.93	2.99787	279.348
46	31.623	7165.53	412.086	7177.37	3.29142	282.628
47	25.119	7218.74	450.587	7232.79	3.57172	285.708
48	19.953	7275.92	497.126	7292.88	3.90865	288.568
49	15.849	7337.2	553.531	7358.05	4.31432	305.183
50	12.589	7396.37	610.233	7421.5	4.71647	324.879
51	10	7466.91	676.669	7497.51	5.17813	351.769
52	7.9433	7545.96	757.063	7583.84	5.72914	363.24
53	6.3096	7630.32	844.781	7676.94	6.31771	372.925
54	5.0119	7712.75	948.42	7770.84	7.01035	413.88
55	3.9811	7810.17	1071.45	7883.32	7.81144	420.426
56	3.1623	7918.78	1210.92	8010.83	8.6942	458.781
57	2.5119	8038.76	1376.33	8155.73	9.71552	484.302
58	1.9953	8157.01	1543.4	8301.74	10.7144	498.762
59	1.5849	8335.11	1751.69	8517.18	11.8684	510.572
60	1.2589	8443.86	2103.05	8701.81	13.9857	516.207
61	1	8598.86	2461.79	8944.31	15.976	523.298
62	0.79433	8780.85	2888.44	9243.72	18.2085	527.613
63	0.63096	8977.73	3397.72	9599.17	20.7297	533.243
64	0.50119	9205.62	4010.98	10041.5	23.5432	538.173
65	0.39811	9429.02	4793.17	10577.4	26.9461	543.923
66	0.31623	9722.46	5727.64	11284.2	30.5029	550.168
67	0.25119	10063.9	6892.23	12197.7	34.4053	556.248
68	0.19953	10424.1	8319.95	13337.3	38.5949	572.998
69	0.15849	10891.6	9990.08	14779.3	42.528	585.774
70	0.12589	11415.2	12100.8	16635.4	46.6701	597.274
71	0.1	12211.4	14571.8	19012	50.0364	613.769