File: data/20200826/Z_p46_1.txt
Index	Frequency (Hz)	Z' (Ω)	-Z'' (Ω)	Z (Ω)	-Phase (°)	Time (s)
1	1000000	3079.54	2377.76	3890.67	37.6722	19.4211
2	794330	3466.61	2172.47	4091.09	32.0747	21.1761
3	630960	3897.03	2050.14	4403.4	27.7478	22.8262
4	501190	4298.59	1931.95	4712.78	24.2009	24.6662
5	398110	4724.63	1747.4	5037.41	20.2969	29.3913
6	316230	5026.65	1585.75	5270.85	17.5089	31.3313
7	251190	5189.81	1382.53	5370.8	14.9168	35.8414
8	199530	5422.75	1246.3	5564.13	12.9434	37.4564
9	158490	5609.43	1107.01	5717.62	11.1637	39.3115
10	125890	5761.14	974.092	5842.91	9.59678	40.7265
11	100000	5881.25	852.082	5942.65	8.24372	42.4165
12	79433	5979.28	741.437	6025.08	7.06866	44.3616
13	63096	6056.99	644.057	6091.14	6.06962	46.2316
14	50119	6121.72	560.163	6147.3	5.22824	47.9866
15	39811	6175.55	488.296	6194.83	4.52093	49.6317
16	31623	6219.97	424.081	6234.41	3.90042	51.1917
17	25119	6256.68	378.771	6268.13	3.46438	52.9267
18	19953	6291.04	336.449	6300.03	3.0613	54.4918
19	15849	6322.21	302.373	6329.44	2.7382	56.1368
20	12589	6349.67	273.853	6355.57	2.46957	57.8068
21	10000	6378.58	251.644	6383.55	2.25923	59.5319
22	7943.3	6408.98	233.074	6413.22	2.08275	61.4419
23	6309.6	6434.04	218.638	6437.76	1.94625	63.3619
24	5011.9	6455.1	206.135	6458.39	1.82905	64.862
25	3981.1	6483.08	196.433	6486.05	1.73549	66.457
26	3162.3	6503.19	189.45	6505.95	1.66866	67.912
27	2511.9	6525.68	182.08	6528.22	1.59826	69.482
28	1995.3	6548.67	177.043	6551.07	1.54861	71.1621
29	1584.9	6573.01	172.697	6575.28	1.50503	72.5871
30	1258.9	6594.89	168.621	6597.05	1.46465	74.4121
31	1000	6618.65	165.715	6620.73	1.43425	75.9822
32	794.33	6639.98	162.5	6641.97	1.40192	77.5872
33	630.96	6664.45	160.496	6666.38	1.37955	79.0722
34	501.19	6686.78	157.567	6688.64	1.34987	80.6472
35	398.11	6708.4	155.752	6710.2	1.33003	82.1673
36	316.23	6730.7	154.928	6732.48	1.31861	83.7123
37	251.19	6751.85	155.02	6753.63	1.31526	85.3373
38	199.53	6775.41	154.808	6777.18	1.3089	86.8524
39	158.49	6796.26	156.221	6798.06	1.31679	88.4574
40	125.89	6814.92	159.29	6816.78	1.33898	90.3924
41	100	6835.4	161.9	6837.32	1.35683	92.0625
42	79.433	6859.47	165.818	6861.47	1.38477	93.7125
43	63.096	6879.67	170.83	6881.79	1.42243	95.5075
44	50.119	6920.62	136.614	6921.97	1.13088	97.1826
45	39.811	6926.13	183.433	6928.56	1.51707	106.783
46	31.623	6947.65	191.804	6950.29	1.58137	108.658
47	25.119	6972.94	203.347	6975.91	1.6704	110.703
48	19.953	6998.79	218.46	7002.2	1.78785	112.868
49	15.849	7031.13	227.817	7034.82	1.8558	115.213
50	12.589	7051.84	248.135	7056.2	2.01525	117.528
51	10	7085.8	267.992	7090.87	2.16595	120.118
52	7.9433	7112.85	294.627	7118.94	2.37194	122.808
53	6.3096	7147.33	323.092	7154.63	2.58827	125.553
54	5.0119	7179.9	352.807	7188.56	2.81315	128.523
55	3.9811	7216.51	394.421	7227.28	3.12841	131.443
56	3.1623	7250.26	443.561	7263.82	3.50091	134.323
57	2.5119	7306.82	517.044	7325.09	4.04761	137.128
58	1.9953	7334.58	566.279	7356.4	4.41486	140.003
59	1.5849	7380.07	680.045	7411.33	5.26472	142.933
60	1.2589	7424.65	753.642	7462.8	5.79598	146.633
61	1	7487.29	892.361	7540.28	6.79665	152.264
62	0.79433	7566.65	1048.96	7639.01	7.89255	155.879
63	0.63096	7633.84	1226.93	7731.81	9.13067	159.699
64	0.50119	7686.55	1461.33	7824.22	10.7643	164.059
65	0.39811	7787.68	1729.53	7977.42	12.5214	168.674
66	0.31623	7875.63	2070.08	8143.14	14.7269	173.684
67	0.25119	7963.4	2526.17	8354.47	17.6002	179.544
68	0.19953	8149.53	3008.8	8687.22	20.2641	186.439
69	0.15849	8324.28	3647.37	9088.29	23.6611	194.169
70	0.12589	8467.43	4374.65	9530.73	27.3229	203.135
71	0.1	8599.57	5417.59	10163.8	32.2103	213.77