File: data/20200826/Z_p48_1.txt
Index	Frequency (Hz)	Z' (Ω)	-Z'' (Ω)	Z (Ω)	-Phase (°)	Time (s)
1	1000000	1956.25	1328.6	2364.76	34.1827	17.2591
2	794330	2156.54	1264.84	2500.1	30.3922	19.0891
3	630960	2392.92	1224.15	2687.86	27.0931	20.8742
4	501190	2622.88	1156.94	2866.71	23.8021	22.7442
5	398110	2838.71	1061.58	3030.71	20.504	27.6143
6	316230	3026.29	979.233	3180.77	17.9303	29.3694
7	251190	3130.32	861.648	3246.74	15.39	34.4444
8	199530	3278.99	784.648	3371.56	13.4576	36.0945
9	158490	3400.08	703.634	3472.13	11.6921	37.7445
10	125890	3500	624.202	3555.22	10.112	39.3995
11	100000	3581.12	549.843	3623.09	8.72898	40.9595
12	79433	3646.14	482.062	3677.87	7.53148	43.1046
13	63096	3699.13	421.521	3723.06	6.50091	44.7746
14	50119	3746.6	369.395	3764.76	5.63086	46.3946
15	39811	3782.02	322.809	3795.77	4.87858	47.9897
16	31623	3814.3	283.039	3824.79	4.24383	49.5847
17	25119	3839.36	251.691	3847.6	3.75069	51.1997
18	19953	3863.53	224.781	3870.07	3.32973	53.0598
19	15849	3886.7	202.166	3891.96	2.97754	54.7498
20	12589	3906.39	183.855	3910.72	2.69464	56.5098
21	10000	3926.09	168.952	3929.73	2.46409	58.3049
22	7943.3	3944.63	157.188	3947.76	2.28196	59.8299
23	6309.6	3961.36	147.21	3964.1	2.12821	61.9099
24	5011.9	3976.15	139.636	3978.6	2.01131	63.515
25	3981.1	3991.91	134.059	3994.16	1.92343	65.16
26	3162.3	4006.73	129.936	4008.84	1.85741	66.74
27	2511.9	4021.43	126.655	4023.42	1.80394	68.2551
28	1995.3	4038.13	124.966	4040.06	1.77254	69.7951
29	1584.9	4053.45	124.407	4055.36	1.75794	71.5101
30	1258.9	4068.73	124.203	4070.63	1.74848	72.8951
31	1000	4085.2	124.596	4087.1	1.74694	74.8552
32	794.33	4098.6	125.526	4100.53	1.75422	76.4552
33	630.96	4116.56	127.236	4118.53	1.77035	78.3102
34	501.19	4132.34	129.965	4134.38	1.8014	79.9203
35	398.11	4150.79	133.684	4152.94	1.84468	81.5003
36	316.23	4168.78	137.994	4171.07	1.8959	83.1503
37	251.19	4186.31	143.911	4188.78	1.96886	84.6454
38	199.53	4203.94	150.911	4206.65	2.0559	86.2604
39	158.49	4225.7	160.435	4228.75	2.17427	87.8054
40	125.89	4246.72	172.152	4250.2	2.32136	89.4554
41	100	4265.38	185.082	4269.39	2.4846	90.8755
42	79.433	4286.24	201.562	4290.98	2.69237	92.6155
43	63.096	4312.26	220.709	4317.9	2.92994	94.2355
44	50.119	4341.36	248.66	4348.48	3.27814	96.0256
45	39.811	4368.59	267.495	4376.77	3.50393	105.446
46	31.623	4401.9	294.771	4411.76	3.83107	107.406
47	25.119	4434.23	327.934	4446.34	4.22962	109.296
48	19.953	4475.74	363.339	4490.46	4.64108	111.456
49	15.849	4521.7	408.217	4540.09	5.15865	113.946
50	12.589	4573.2	451.792	4595.46	5.64201	116.421
51	10	4630.39	501.841	4657.5	6.18556	119.126
52	7.9433	4696.66	557.059	4729.58	6.76411	121.971
53	6.3096	4763.68	620.344	4803.9	7.41953	124.606
54	5.0119	4840.29	686.426	4888.72	8.07159	127.261
55	3.9811	4922.21	760.33	4980.59	8.78104	129.961
56	3.1623	5009.58	841.849	5079.82	9.5393	133.016
57	2.5119	5120.69	937.714	5205.84	10.3772	135.891
58	1.9953	5212.09	1039.59	5314.76	11.28	139.016
59	1.5849	5327.13	1152.58	5450.39	12.2084	141.951
60	1.2589	5427.53	1346.4	5592.03	13.932	145.291
61	1	5547.73	1511.15	5749.86	15.2372	150.907
62	0.79433	5690.01	1723.92	5945.43	16.8554	154.527
63	0.63096	5834.59	1986.48	6163.49	18.802	158.567
64	0.50119	5981.74	2313.1	6413.4	21.1412	162.692
65	0.39811	6134.63	2684.89	6696.44	23.6371	167.392
66	0.31623	6336.61	3163.55	7082.42	26.5307	172.807
67	0.25119	6526.25	3734.89	7519.39	29.7819	178.887
68	0.19953	6818.53	4461.08	8148.23	33.195	185.492
69	0.15849	7115.19	5319.16	8883.66	36.781	193.147
70	0.12589	7432.82	6310.27	9750.19	40.3304	202.168
71	0.1	7702.54	7588.08	10812.4	44.5711	212.798