File: data/20200826/Z_p47_1.txt
Index	Frequency (Hz)	Z' (Ω)	-Z'' (Ω)	Z (Ω)	-Phase (°)	Time (s)
1	1000000	2291.98	1520.03	2750.21	33.5521	76.8232
2	794330	2525.13	1411.43	2892.82	29.2032	78.2582
3	630960	2777.65	1343.87	3085.67	25.8184	79.6533
4	501190	3039.39	1248.08	3285.66	22.3247	81.1733
5	398110	3272.69	1124.79	3460.58	18.9674	85.4334
6	316230	3464.47	1019.85	3611.46	16.4031	86.7484
7	251190	3566.38	886.903	3675.01	13.9653	90.8435
8	199530	3716.83	798.656	3801.67	12.1271	92.2335
9	158490	3837.54	709.122	3902.51	10.4693	93.5335
10	125890	3935.33	623.19	3984.37	8.99851	94.7685
11	100000	4008.7	544.293	4045.49	7.73221	96.2336
12	79433	4071.61	473.049	4098.99	6.62705	97.5386
13	63096	4121.58	411.085	4142.03	5.69582	98.8636
14	50119	4163.88	357.106	4179.16	4.90185	100.169
15	39811	4197.9	311.243	4209.42	4.2403	101.574
16	31623	4225.87	271.523	4234.58	3.67635	102.934
17	25119	4250.63	240.573	4257.43	3.23931	104.219
18	19953	4273.32	214.826	4278.71	2.87792	105.494
19	15849	4293.52	192.661	4297.84	2.56928	106.809
20	12589	4312.12	175.149	4315.68	2.32596	108.149
21	10000	4330.5	161.095	4333.5	2.13042	109.484
22	7943.3	4346.69	149.575	4349.26	1.97084	110.834
23	6309.6	4362.38	140.214	4364.63	1.84094	112.079
24	5011.9	4379.19	133.211	4381.21	1.74235	113.389
25	3981.1	4392.71	127.2	4394.56	1.65866	114.729
26	3162.3	4410.23	122.397	4411.93	1.58972	116.004
27	2511.9	4425.1	118.491	4426.69	1.53384	117.289
28	1995.3	4440.17	115.06	4441.66	1.4844	118.734
29	1584.9	4453.92	112.505	4455.34	1.44697	119.834
30	1258.9	4468.75	110.428	4470.11	1.41555	121.089
31	1000	4482.86	108.117	4484.16	1.38159	122.324
32	794.33	4497.83	105.996	4499.08	1.34998	123.694
33	630.96	4512.21	104.586	4513.42	1.32779	124.969
34	501.19	4527.12	102.903	4528.29	1.30213	126.304
35	398.11	4543.3	101.742	4544.44	1.28286	127.549
36	316.23	4558.93	100.804	4560.04	1.26668	128.899
37	251.19	4571.14	101.233	4572.26	1.26867	130.219
38	199.53	4587.4	100.672	4588.5	1.25717	131.439
39	158.49	4601.22	101.612	4602.34	1.26509	132.704
40	125.89	4615.32	103.345	4616.48	1.28273	134.079
41	100	4626.87	104.801	4628.06	1.29756	135.469
42	79.433	4641.85	106.91	4643.08	1.31939	136.874
43	63.096	4655.22	110.694	4656.54	1.36215	138.369
44	50.119	4666.8	105.623	4668	1.29655	139.799
45	39.811	4685.32	119.904	4686.86	1.46596	148.845
46	31.623	4697.9	125.751	4699.58	1.53329	150.55
47	25.119	4713.16	132.23	4715.02	1.60704	152.19
48	19.953	4729.01	141.617	4731.13	1.71529	154.065
49	15.849	4745.28	151.896	4747.71	1.83341	155.97
50	12.589	4762.67	167.139	4765.6	2.00989	158.025
51	10	4779.13	183.268	4782.64	2.19608	160.275
52	7.9433	4796.67	201.41	4800.9	2.40441	162.58
53	6.3096	4818.95	225.423	4824.22	2.67825	164.99
54	5.0119	4839.11	256.613	4845.91	3.03549	167.42
55	3.9811	4857.99	290.028	4866.64	3.41657	169.78
56	3.1623	4882.67	334.221	4894.1	3.91581	172.325
57	2.5119	4906.06	382.362	4920.94	4.45643	174.915
58	1.9953	4936.26	441.999	4956.01	5.11669	177.615
59	1.5849	4952.87	553.864	4983.74	6.3807	180.49
60	1.2589	4997.88	641.974	5038.94	7.31952	183.355
61	1	5050.03	731.25	5102.69	8.23924	188.46
62	0.79433	5107.04	861.645	5179.22	9.57658	191.575
63	0.63096	5154.86	1030.61	5256.88	11.306	195.055
64	0.50119	5209	1216.3	5349.12	13.143	198.805
65	0.39811	5281.68	1467.27	5481.7	15.5255	203.011
66	0.31623	5333.17	1764.2	5617.39	18.3041	207.766
67	0.25119	5457.03	2155.65	5867.36	21.5552	213.216
68	0.19953	5552.19	2624.02	6141.03	25.2959	219.486
69	0.15849	5687.44	3167.93	6510.21	29.118	226.776
70	0.12589	5791.32	3793.85	6923.34	33.2285	235.391
71	0.1	5898.35	4733.5	7562.84	38.7475	245.591