File: data/20200826/Z_p45_1.txt
Index	Frequency (Hz)	Z' (Ω)	-Z'' (Ω)	Z (Ω)	-Phase (°)	Time (s)
1	1000000	1998.84	1323.59	2397.34	33.5116	24.1443
2	794330	2191.84	1247.1	2521.79	29.6387	26.6643
3	630960	2423.1	1202.57	2705.1	26.395	29.7294
4	501190	2646.93	1129.1	2877.69	23.1015	32.1494
5	398110	2858.44	1029.35	3038.13	19.8045	40.1545
6	316230	3040.73	947.278	3184.87	17.3034	42.8196
7	251190	3133.75	823.831	3240.23	14.7292	50.3597
8	199530	3276.49	747.085	3360.58	12.8446	57.3949
9	158490	3389.2	667.087	3454.23	11.135	72.7702
10	125890	3483.74	590.249	3533.39	9.61627	81.0403
11	100000	3557.15	517.301	3594.56	8.27428	85.3854
12	79433	3617.95	452.822	3646.18	7.13403	89.8755
13	63096	3668.75	395.539	3690.01	6.15346	96.5406
14	50119	3706.89	344.482	3722.86	5.30927	102.806
15	39811	3741.79	300.493	3753.84	4.59141	106.786
16	31623	3771.23	263.514	3780.42	3.99703	109.211
17	25119	3794.68	234.017	3801.89	3.52894	111.841
18	19953	3818.64	209.767	3824.39	3.14424	115.966
19	15849	3838.07	187.892	3842.67	2.80267	119.751
20	12589	3858.19	172.11	3862.03	2.55421	128.921
21	10000	3873.44	157.753	3876.66	2.33219	133.946
22	7943.3	3891.91	147.496	3894.7	2.17036	137.956
23	6309.6	3908.26	138.782	3910.72	2.03372	140.216
24	5011.9	3920.62	132.04	3922.84	1.9289	142.686
25	3981.1	3937.17	127.041	3939.22	1.84812	145.366
26	3162.3	3950.91	123.107	3952.83	1.78471	147.412
27	2511.9	3965.32	120.702	3967.16	1.74351	149.962
28	1995.3	3982.67	119.113	3984.45	1.71308	152.637
29	1584.9	3996.71	118.121	3998.45	1.69286	155.057
30	1258.9	4011.44	117.897	4013.17	1.68345	157.787
31	1000	4026.74	118.039	4028.47	1.67908	160.257
32	794.33	4041.59	119.163	4043.34	1.68883	162.637
33	630.96	4058	120.828	4059.8	1.7055	165.122
34	501.19	4073.41	123.088	4075.26	1.73081	169.227
35	398.11	4088.65	125.862	4090.59	1.76319	171.877
36	316.23	4107.74	129.425	4109.78	1.80465	175.652
37	251.19	4125	134.544	4127.19	1.86813	179.037
38	199.53	4143.47	140.588	4145.85	1.9433	183.457
39	158.49	4162.53	147.75	4165.15	2.03288	186.122
40	125.89	4180.63	157.535	4183.6	2.15801	188.882
41	100	4199.95	167.382	4203.28	2.28223	191.512
42	79.433	4224.43	179.142	4228.23	2.42824	193.767
43	63.096	4246.45	193.084	4250.84	2.60342	196.212
44	50.119	4258.6	208.737	4263.72	2.80613	200.688
45	39.811	4297.37	227.066	4303.36	3.0246	211.988
46	31.623	4323.58	246.476	4330.6	3.26275	214.938
47	25.119	4358.19	270.888	4366.6	3.55671	218.293
48	19.953	4390.91	295.222	4400.82	3.84649	222.253
49	15.849	4429.56	325.742	4441.52	4.20585	225.268
50	12.589	4468.48	357.073	4482.72	4.56876	228.933
51	10	4514.75	393.742	4531.88	4.98429	232.198
52	7.9433	4563.13	433.419	4583.66	5.42584	234.963
53	6.3096	4615	476.244	4639.51	5.89177	237.583
54	5.0119	4673.54	527.884	4703.26	6.44433	240.323
55	3.9811	4737.16	585.954	4773.26	7.05128	243.063
56	3.1623	4802.09	649.605	4845.83	7.70394	245.773
57	2.5119	4875.45	720.502	4928.4	8.40641	248.663
58	1.9953	4955.63	800.01	5019.79	9.1704	251.593
59	1.5849	5040.11	888.841	5117.89	10.0015	254.774
60	1.2589	5126.39	1038.12	5230.44	11.4479	258.104
61	1	5218.54	1176.14	5349.44	12.7009	263.774
62	0.79433	5330.25	1348.01	5498.07	14.1924	267.224
63	0.63096	5434.75	1543.64	5649.72	15.8562	271.189
64	0.50119	5547.7	1777.45	5825.49	17.7651	275.429
65	0.39811	5683.17	2093.86	6056.62	20.2254	280.129
66	0.31623	5809.16	2467.19	6311.37	23.0113	285.404
67	0.25119	6000.15	2913.24	6669.99	25.8979	291.414
68	0.19953	6144.93	3462.35	7053.23	29.399	297.994
69	0.15849	6338.22	4129.22	7564.62	33.0834	305.554
70	0.12589	6617.7	4950.16	8264.26	36.7972	314.46
71	0.1	6891.5	5845.87	9036.98	40.307	325.115