File: data/20200826/Z_p41_1.txt
Index	Frequency (Hz)	Z' (Ω)	-Z'' (Ω)	Z (Ω)	-Phase (°)	Time (s)
1	1000000	2563.79	1837.9	3154.5	35.6356	20.7412
2	794330	2857.86	1714.07	3332.47	30.9542	23.2662
3	630960	3192.09	1634.62	3586.28	27.1164	25.7263
4	501190	3514.17	1533.35	3834.13	23.5733	28.3713
5	398110	3824.73	1395.08	4071.22	20.0395	35.1064
6	316230	4063.94	1286.56	4262.72	17.5667	36.8915
7	251190	4197.33	1106.69	4340.77	14.7707	44.3166
8	199530	4383.86	997.959	4496.02	12.8245	47.0217
9	158490	4536.37	887.636	4622.39	11.0712	49.2967
10	125890	4656.11	780.993	4721.16	9.52186	54.6368
11	100000	4751.24	682.773	4800.05	8.17765	58.5569
12	79433	4833.06	595.003	4869.54	7.01844	60.7419
13	63096	4892.34	516.35	4919.51	6.02483	62.8019
14	50119	4946.44	450.421	4966.91	5.20297	64.682
15	39811	4987.49	391.506	5002.84	4.48838	67.307
16	31623	5027.3	341.583	5038.89	3.88702	69.9571
17	25119	5057.53	304.504	5066.69	3.44551	73.3471
18	19953	5084.72	270.269	5091.89	3.0426	75.8322
19	15849	5109.31	244.694	5115.16	2.7419	78.0722
20	12589	5132.6	222.346	5137.42	2.48052	80.4123
21	10000	5156.58	204.447	5160.63	2.27046	83.0523
22	7943.3	5178.33	190.736	5181.84	2.10946	85.8974
23	6309.6	5197.22	179.806	5200.32	1.98145	88.3224
24	5011.9	5219.03	170.576	5221.82	1.87196	90.5775
25	3981.1	5238.08	164.154	5240.65	1.79498	92.1125
26	3162.3	5256.37	158.588	5258.76	1.72812	94.5725
27	2511.9	5274.73	154.646	5277	1.67933	97.0376
28	1995.3	5295.83	151.986	5298.01	1.64389	99.7176
29	1584.9	5314.3	149.636	5316.4	1.61286	101.878
30	1258.9	5333.5	148.704	5335.58	1.59705	103.838
31	1000	5353.92	147.541	5355.96	1.57853	107.023
32	794.33	5372.36	147.404	5374.38	1.57166	109.178
33	630.96	5393.58	147.291	5395.59	1.56428	111.288
34	501.19	5414.87	148.045	5416.89	1.5661	113.568
35	398.11	5433.9	149.245	5435.95	1.57327	115.123
36	316.23	5455.66	150.73	5457.74	1.58258	116.688
37	251.19	5476.13	154.453	5478.3	1.61559	118.713
38	199.53	5496.14	159.198	5498.45	1.65913	120.493
39	158.49	5517.2	164.399	5519.65	1.70677	125.578
40	125.89	5541.02	172.233	5543.7	1.78037	130.838
41	100	5560.62	180.334	5563.54	1.85748	135.273
42	79.433	5580.67	192.169	5583.98	1.97219	137.968
43	63.096	5602.5	207.079	5606.32	2.1168	141.303
44	50.119	5635.09	225.721	5639.6	2.29384	144.078
45	39.811	5658.29	238.994	5663.33	2.41862	154.794
46	31.623	5691.02	262.133	5697.05	2.63723	158.529
47	25.119	5717.76	284.706	5724.84	2.85059	162.029
48	19.953	5755.52	313.687	5764.06	3.11965	166.654
49	15.849	5797.21	345.309	5807.48	3.40878	171.334
50	12.589	5841.19	378.088	5853.42	3.70347	174.724
51	10	5883.12	413.633	5897.64	4.02176	180.434
52	7.9433	5942.56	458.414	5960.22	4.41111	188.429
53	6.3096	5997.01	503.574	6018.11	4.79991	193.729
54	5.0119	6055.82	555.785	6081.27	5.24374	197.959
55	3.9811	6111.68	617.191	6142.76	5.7665	203.905
56	3.1623	6179.14	687.515	6217.27	6.34884	217.68
57	2.5119	6242.56	758.348	6288.45	6.92638	222.805
58	1.9953	6298.16	843.709	6354.42	7.62998	258.811
59	1.5849	6436.51	1008.04	6514.97	8.90091	287.396
60	1.2589	6502.59	1129.31	6599.93	9.85234	306.546
61	1	6580.9	1305.87	6709.22	11.2236	318.037
62	0.79433	6681	1517.1	6851.08	12.7936	321.242
63	0.63096	6788.71	1769.32	7015.49	14.6079	325.077
64	0.50119	6911.47	2078.47	7217.23	16.7375	334.142
65	0.39811	7031.37	2475.51	7454.42	19.3955	341.322
66	0.31623	7151.7	2929.03	7728.26	22.2719	349.412
67	0.25119	7377.49	3501.53	8166.27	25.3901	354.907
68	0.19953	7488.97	4171.1	8572.21	29.1163	364.398
69	0.15849	7726.48	5018.95	9213.48	33.0068	374.878
70	0.12589	8060.04	6065.88	10087.6	36.9646	384.788
71	0.1	8215.45	7367.94	11035.4	41.887	396.388