File: data/20200826/Z_p49_1.txt
Index	Frequency (Hz)	Z' (Ω)	-Z'' (Ω)	Z (Ω)	-Phase (°)	Time (s)
1	1000000	1983.43	1342.54	2395.08	34.0932	15.2221
2	794330	2180.97	1267.99	2522.78	30.1733	16.6221
3	630960	2414.4	1229.78	2709.55	26.9921	18.1021
4	501190	2641.23	1170.79	2889.1	23.9065	19.6872
5	398110	2859	1071.33	3053.13	20.542	24.0072
6	316230	3046.5	997.162	3205.55	18.124	25.3523
7	251190	3155.11	880.726	3275.73	15.5967	29.5373
8	199530	3307.53	809.513	3405.15	13.7527	30.9874
9	158490	3432.79	734.063	3510.4	12.0702	32.4124
10	125890	3539.42	659.788	3600.4	10.5594	33.7224
11	100000	3623.76	588.954	3671.31	9.23131	35.1074
12	79433	3696.93	524.958	3734.02	8.08187	36.4475
13	63096	3760.12	467.248	3789.04	7.08351	37.7825
14	50119	3811.75	417.738	3834.57	6.25422	39.1725
15	39811	3856.35	373.773	3874.42	5.53605	40.4575
16	31623	3895.82	336.779	3910.35	4.94071	41.7276
17	25119	3929.27	308.069	3941.32	4.48303	43.0626
18	19953	3963	284.083	3973.17	4.10016	44.3126
19	15849	3990.88	264.989	3999.67	3.79878	45.6326
20	12589	4019.38	250.423	4027.18	3.56514	46.9877
21	10000	4047.56	238.718	4054.59	3.3753	48.3427
22	7943.3	4074.03	231.995	4080.63	3.25919	49.7427
23	6309.6	4102.81	227.773	4109.13	3.17759	51.1527
24	5011.9	4130.17	225.693	4136.33	3.12781	52.5478
25	3981.1	4158.43	226.094	4164.58	3.11211	53.8428
26	3162.3	4183.39	228.21	4189.61	3.12247	55.1678
27	2511.9	4213.79	232.395	4220.19	3.15673	56.4878
28	1995.3	4244.21	238.37	4250.9	3.21456	57.8329
29	1584.9	4275.23	245.434	4282.27	3.28564	59.0929
30	1258.9	4306.49	254.242	4313.99	3.37865	60.3879
31	1000	4338.65	264.453	4346.7	3.48802	61.6729
32	794.33	4375.7	276.569	4384.43	3.61661	63.058
33	630.96	4411.6	290.263	4421.14	3.76438	64.368
34	501.19	4452.11	305.611	4462.59	3.92686	65.848
35	398.11	4493.28	323.914	4504.94	4.12323	67.188
36	316.23	4537.29	343.362	4550.26	4.32765	68.5481
37	251.19	4584.73	366.635	4599.37	4.57213	69.8981
38	199.53	4632.99	392.265	4649.56	4.83956	71.1881
39	158.49	4688.58	421.842	4707.52	5.14118	72.4931
40	125.89	4745.62	453.587	4767.24	5.45976	73.8782
41	100	4807	489.308	4831.84	5.81217	75.2532
42	79.433	4875.31	527.879	4903.81	6.17968	76.7232
43	63.096	4946.26	569.554	4978.94	6.56859	78.2832
44	50.119	5023.91	617.571	5061.73	7.008	79.7783
45	39.811	5113.6	662.16	5156.29	7.37818	88.9134
46	31.623	5205.97	711.863	5254.41	7.78632	90.5135
47	25.119	5304.83	766.254	5359.89	8.21921	92.1435
48	19.953	5415.02	822.111	5477.07	8.63275	94.0985
49	15.849	5527.61	883.492	5597.77	9.08093	96.0686
50	12.589	5649.69	945.414	5728.25	9.4998	98.0936
51	10	5778.9	1013.72	5867.14	9.9494	100.409
52	7.9433	5913.37	1085.97	6012.26	10.4063	102.704
53	6.3096	6057.56	1168.39	6169.21	10.9172	105.139
54	5.0119	6203.73	1258.45	6330.09	11.4671	107.619
55	3.9811	6360.96	1363.16	6505.39	12.0956	110.024
56	3.1623	6531.26	1479.73	6696.79	12.7655	112.514
57	2.5119	6685.65	1622.42	6879.69	13.6404	115.129
58	1.9953	6836.17	1736.24	7053.21	14.2506	117.779
59	1.5849	7094.98	1966.11	7362.36	15.4888	120.539
60	1.2589	7319.24	2176.27	7635.93	16.5591	123.449
61	1	7538.71	2451.01	7927.14	18.0105	128.454
62	0.79433	7809.54	2762.33	8283.68	19.4793	131.699
63	0.63096	8092.5	3109.94	8669.5	21.0218	135.294
64	0.50119	8404.33	3554.33	9125.02	22.9243	139.064
65	0.39811	8751.5	4063.16	9648.73	24.9046	143.264
66	0.31623	9197.9	4677.67	10319	26.956	148.1
67	0.25119	9663.07	5328.43	11034.8	28.8733	153.54
68	0.19953	10232.9	6122.92	11924.8	30.8946	159.78
69	0.15849	10849.9	7060.41	12944.9	33.0535	167.055
70	0.12589	11664.7	8212.54	14265.8	35.1474	175.63
71	0.1	12558.2	9310.43	15633	36.5526	185.835