File: data/20200826/Z_p40_1.txt
Index	Frequency (Hz)	Z' (Ω)	-Z'' (Ω)	Z (Ω)	-Phase (°)	Time (s)
1	1000000	2605.49	1893.71	3220.98	36.0103	42.1886
2	794330	2891.99	1768.48	3389.85	31.4462	45.7386
3	630960	3235.84	1693.26	3652.1	27.6222	49.2637
4	501190	3560.61	1591.68	3900.17	24.0858	52.1538
5	398110	3895.88	1451.97	4157.65	20.4401	62.0689
6	316230	4151.64	1325.81	4358.2	17.7106	64.924
7	251190	4288.69	1160.5	4442.93	15.1414	75.1642
8	199530	4483.82	1049.57	4605.02	13.1745	78.0492
9	158490	4644.9	935.458	4738.16	11.3868	86.3544
10	125890	4773.11	824.986	4843.88	9.80613	92.0745
11	100000	4875.57	722.245	4928.78	8.42625	101.965
12	79433	4960.75	630.434	5000.65	7.24258	116.525
13	63096	5028.96	548.378	5058.77	6.22317	133.87
14	50119	5080.46	475.835	5102.7	5.35069	139.43
15	39811	5129.87	416.315	5146.74	4.63968	160.681
16	31623	5166.11	363.748	5178.9	4.02758	186.631
17	25119	5197.82	323.622	5207.89	3.5627	190.001
18	19953	5229.2	287.677	5237.11	3.14887	193.806
19	15849	5254.68	257.563	5260.99	2.80616	196.931
20	12589	5281.74	233.743	5286.91	2.53397	199.961
21	10000	5302.85	216.47	5307.27	2.3376	216.087
22	7943.3	5326.05	200.044	5329.81	2.15099	219.822
23	6309.6	5349.11	188.226	5352.42	2.0153	223.457
24	5011.9	5371.28	178.539	5374.25	1.90379	227.587
25	3981.1	5390.16	170.899	5392.87	1.816	233.517
26	3162.3	5410.15	164.291	5412.64	1.73938	246.382
27	2511.9	5428.33	159.291	5430.67	1.68082	260.293
28	1995.3	5448.07	156.317	5450.32	1.64349	263.398
29	1584.9	5467.36	153.718	5469.52	1.61048	267.558
30	1258.9	5487.43	151.191	5489.51	1.57823	272.528
31	1000	5507.26	149.429	5509.29	1.55423	276.328
32	794.33	5526.84	148.899	5528.84	1.54324	279.703
33	630.96	5545.15	147.497	5547.11	1.52366	282.828
34	501.19	5569.26	147.129	5571.21	1.51329	286.768
35	398.11	5588.12	147.786	5590.08	1.51492	291.238
36	316.23	5608.16	149.533	5610.16	1.52734	296.208
37	251.19	5627.31	151.159	5629.34	1.53869	301.643
38	199.53	5648.92	155.735	5651.06	1.57919	330.359
39	158.49	5666.66	160.264	5668.93	1.62	335.599
40	125.89	5686.79	168.531	5689.29	1.6975	338.904
41	100	5706.34	177.864	5709.11	1.78531	342.389
42	79.433	5727.82	188.571	5730.93	1.8856	346.059
43	63.096	5751.19	202.552	5754.75	2.01708	349.559
44	50.119	5780.01	243.953	5785.16	2.41681	357.829
45	39.811	5797.34	239.305	5802.28	2.36374	369.855
46	31.623	5829.29	260.167	5835.09	2.55547	379.465
47	25.119	5862.64	287.22	5869.67	2.80477	384.16
48	19.953	5899.37	320.77	5908.08	3.11231	389.035
49	15.849	5938.3	352.036	5948.73	3.39265	396.705
50	12.589	5979.74	391.399	5992.53	3.74491	400.895
51	10	6031.28	432.281	6046.75	4.09957	404.69
52	7.9433	6084.09	476.009	6102.69	4.47361	408.965
53	6.3096	6144.4	530.011	6167.21	4.93009	413.325
54	5.0119	6200.71	585.157	6228.26	5.391	417.471
55	3.9811	6263.4	649.197	6296.95	5.91754	421.866
56	3.1623	6339.3	726.002	6380.73	6.53329	426.391
57	2.5119	6419.12	802.028	6469.03	7.12183	431.171
58	1.9953	6505.11	959.793	6575.53	8.39312	435.841
59	1.5849	6537.38	1089.94	6627.61	9.46556	440.521
60	1.2589	6649.02	1201.23	6756.66	10.2408	445.861
61	1	6761.22	1376.43	6899.91	11.5069	455.491
62	0.79433	6878.29	1605.63	7063.21	13.1395	459.806
63	0.63096	6996.73	1859.68	7239.66	14.8846	465.536
64	0.50119	7106.94	2189.37	7436.53	17.122	471.852
65	0.39811	7214.27	2580.71	7661.97	19.6833	478.832
66	0.31623	7359.01	3078.83	7977.11	22.7033	487.767
67	0.25119	7512.21	3701.15	8374.47	26.2287	500.432
68	0.19953	7776.21	4442.46	8955.72	29.7388	507.402
69	0.15849	7993.27	5407.64	9650.65	34.0793	515.412
70	0.12589	8286.01	6504.02	10533.8	38.1298	524.552
71	0.1	8499.62	7801.51	11537.2	42.5478	535.663