File: data/20200826/Z_p44_1.txt
Index	Frequency (Hz)	Z' (Ω)	-Z'' (Ω)	Z (Ω)	-Phase (°)	Time (s)
1	1000000	2822.49	2199.38	3578.22	37.9269	19.6701
2	794330	3173.57	2052.64	3779.54	32.8945	23.4352
3	630960	3593.57	1965.55	4095.99	28.677	26.1253
4	501190	3989.88	1854.62	4399.85	24.9305	39.3305
5	398110	4371.2	1725.99	4699.62	21.5468	65.476
6	316230	4675.06	1571.54	4932.13	18.5803	70.1011
7	251190	4853.56	1405.37	5052.94	16.1486	82.8013
8	199530	5091.34	1281.84	5250.22	14.1316	84.9014
9	158490	5290.25	1154.34	5414.73	12.3091	90.6865
10	125890	5451.08	1028.47	5547.26	10.6846	96.8166
11	100000	5583.74	911.291	5657.61	9.26921	100.047
12	79433	5695.68	803.961	5752.14	8.03437	107.857
13	63096	5786.08	708.022	5829.24	6.9764	110.807
14	50119	5865.71	625.458	5898.96	6.08643	114.082
15	39811	5928.55	551.086	5954.11	5.31064	116.767
16	31623	5982.69	488.526	6002.6	4.66822	118.957
17	25119	6034.17	436.644	6049.95	4.13881	121.952
18	19953	6080.35	393.021	6093.04	3.69833	126.047
19	15849	6118.04	354.823	6128.32	3.31922	130.662
20	12589	6155.32	323.337	6163.8	3.00697	133.097
21	10000	6188.77	299.378	6196	2.76949	136.312
22	7943.3	6222.42	277.57	6228.61	2.55416	139.312
23	6309.6	6255.63	260.885	6261.07	2.38808	141.852
24	5011.9	6283.03	247.018	6287.88	2.25143	144.742
25	3981.1	6312.44	235.737	6316.84	2.13871	147.003
26	3162.3	6341.29	226.504	6345.33	2.04567	149.743
27	2511.9	6369.3	219.239	6373.07	1.97141	151.893
28	1995.3	6394.68	213.665	6398.24	1.91371	155.878
29	1584.9	6419.62	208.823	6423.02	1.86311	159.503
30	1258.9	6450.17	205.551	6453.44	1.82526	164.698
31	1000	6476.73	203.018	6479.91	1.79539	167.918
32	794.33	6500.71	201.815	6503.84	1.77819	175.903
33	630.96	6526.22	199.814	6529.28	1.75368	180.613
34	501.19	6554.97	200.301	6558.03	1.75025	182.528
35	398.11	6581.33	200.718	6584.39	1.74687	184.688
36	316.23	6613.18	203.522	6616.31	1.76274	188.268
37	251.19	6641.33	206.472	6644.54	1.7807	195.018
38	199.53	6665.75	211.304	6669.1	1.81567	200.658
39	158.49	6693.76	218.811	6697.33	1.87227	203.059
40	125.89	6720.88	227.278	6724.72	1.93682	205.179
41	100	6751.19	241.773	6755.52	2.051	210.664
42	79.433	6781.7	254.03	6786.46	2.14519	215.349
43	63.096	6811.74	270.65	6817.11	2.27533	221.054
44	50.119	6868.58	281.417	6874.34	2.34619	223.049
45	39.811	6882.31	314.828	6889.51	2.61914	235.959
46	31.623	6920.74	342.033	6929.19	2.82934	239.759
47	25.119	6963.28	371.526	6973.19	3.05412	245.454
48	19.953	7011.58	408.81	7023.49	3.33685	255.095
49	15.849	7056.65	447.171	7070.8	3.62592	262.285
50	12.589	7110.51	496.369	7127.81	3.99322	265.63
51	10	7171.81	549.227	7192.81	4.37924	269.615
52	7.9433	7238.73	603.372	7263.84	4.76477	275.295
53	6.3096	7306.38	675.693	7337.55	5.28368	280.96
54	5.0119	7377.96	751.945	7416.18	5.81936	285.62
55	3.9811	7466.22	838.18	7513.12	6.40537	290.88
56	3.1623	7561.32	939.214	7619.43	7.08061	295.33
57	2.5119	7662.26	1064.66	7735.87	7.91054	298.47
58	1.9953	7751.77	1151.97	7836.9	8.45274	303.045
59	1.5849	7945.41	1331.61	8056.22	9.51404	308.5
60	1.2589	8019.79	1548.11	8167.84	10.9257	313.111
61	1	8178.8	1804.07	8375.41	12.439	324.676
62	0.79433	8366.01	2068.13	8617.84	13.8855	330.096
63	0.63096	8561.66	2397.94	8891.12	15.6464	333.691
64	0.50119	8784.01	2764.09	9208.64	17.4674	338.266
65	0.39811	9028	3207.71	9580.92	19.5605	343.226
66	0.31623	9340.33	3776.45	10074.9	22.0143	348.801
67	0.25119	9649.56	4369.87	10592.9	24.3637	356.301
68	0.19953	10057.7	5097.64	11275.8	26.8778	366.317
69	0.15849	10527.5	5991.33	12113	29.6446	386.082
70	0.12589	11053.8	6984.45	13075.5	32.287	396.122
71	0.1	11684.3	8215.5	14283.5	35.112	407.717