File: data/20200826/Z_p42_1.txt
Index	Frequency (Hz)	Z' (Ω)	-Z'' (Ω)	Z (Ω)	-Phase (°)	Time (s)
1	1000000	2806.34	2099.08	3504.53	36.7957	15.3491
2	794330	3145.89	1935.6	3693.67	31.6031	17.6341
3	630960	3520.13	1853.56	3978.32	27.7695	20.8342
4	501190	3881.49	1738.39	4252.99	24.126	24.6192
5	398110	4247.37	1601.11	4539.13	20.6546	30.6144
6	316230	4519.89	1469.48	4752.77	18.01	32.3744
7	251190	4684.15	1294.29	4859.68	15.4462	39.9445
8	199530	4904.42	1178.25	5043.97	13.5089	42.3596
9	158490	5081.57	1059.68	5190.89	11.7793	45.1396
10	125890	5229.05	944.036	5313.58	10.2338	47.1497
11	100000	5350.63	836.492	5415.62	8.88542	49.4097
12	79433	5451.56	739.433	5501.48	7.72428	52.3298
13	63096	5533.98	652.177	5572.28	6.72128	54.5948
14	50119	5605.2	577.105	5634.84	5.87839	58.8849
15	39811	5667.47	512.632	5690.6	5.16844	67.205
16	31623	5718.25	455.536	5736.36	4.55477	69.7401
17	25119	5765.24	408.583	5779.7	4.05377	71.9701
18	19953	5806.12	368.305	5817.79	3.62963	77.6852
19	15849	5844.42	334.908	5854.01	3.27969	80.9503
20	12589	5879.28	307.645	5887.32	2.99539	82.6803
21	10000	5911.95	285.953	5918.86	2.76916	84.7654
22	7943.3	5945.03	265.951	5950.98	2.56142	87.1404
23	6309.6	5973.53	251.864	5978.83	2.41436	89.3104
24	5011.9	6003	240.314	6007.81	2.29246	93.1055
25	3981.1	6031.25	231.309	6035.69	2.19632	97.4756
26	3162.3	6058.73	225.056	6062.91	2.12732	99.7306
27	2511.9	6085.68	219.466	6089.64	2.06534	101.871
28	1995.3	6111.12	216.85	6114.96	2.03226	103.876
29	1584.9	6138.71	214.106	6142.44	1.99755	105.596
30	1258.9	6169.34	213.291	6173.02	1.98008	107.651
31	1000	6194.98	213.47	6198.66	1.97355	110.231
32	794.33	6225.27	214.147	6228.95	1.97018	114.576
33	630.96	6252.16	216.131	6255.89	1.97987	119.986
34	501.19	6282.41	218.889	6286.22	1.99547	122.596
35	398.11	6311.92	223.591	6315.88	2.02877	125.696
36	316.23	6343.25	228.586	6347.37	2.06382	130.481
37	251.19	6372.65	236.233	6377.03	2.12297	133.966
38	199.53	6404.35	245.723	6409.06	2.19726	135.681
39	158.49	6439.27	257.064	6444.4	2.28611	137.876
40	125.89	6471.36	271.94	6477.07	2.40628	139.881
41	100	6507.85	288.005	6514.22	2.53397	141.946
42	79.433	6541.68	304.998	6548.79	2.66942	143.861
43	63.096	6581.44	329.621	6589.69	2.86717	146.111
44	50.119	6616.01	353.758	6625.46	3.06069	148.332
45	39.811	6666.7	383.14	6677.7	3.28921	158.027
46	31.623	6718.25	413.368	6730.96	3.52092	164.732
47	25.119	6767.93	453.687	6783.11	3.83508	168.982
48	19.953	6826.46	495.596	6844.42	4.15235	175.607
49	15.849	6881.69	546.026	6903.32	4.53662	179.392
50	12.589	6951.49	597.187	6977.1	4.91009	181.752
51	10	7021.94	660.842	7052.97	5.37633	184.707
52	7.9433	7097.14	728.207	7134.4	5.85838	190.817
53	6.3096	7182.51	808.273	7227.84	6.42069	196.002
54	5.0119	7273.21	910.153	7329.94	7.13278	200.893
55	3.9811	7363.7	1013.23	7433.09	7.83457	209.313
56	3.1623	7471.55	1139.87	7558	8.67427	212.928
57	2.5119	7574.28	1274.27	7680.72	9.54979	222.543
58	1.9953	7745.83	1495.5	7888.87	10.9277	227.913
59	1.5849	7897.96	1661.16	8070.76	11.8777	232.883
60	1.2589	7999.51	1947.81	8233.23	13.6847	236.588
61	1	8190.45	2214.47	8484.54	15.1295	243.713
62	0.79433	8392.9	2565.43	8776.23	16.9966	251.483
63	0.63096	8618	2966.85	9114.39	18.9966	257.569
64	0.50119	8864.66	3468.96	9519.24	21.3716	267.814
65	0.39811	9158.52	4065.07	10020.1	23.9343	276.714
66	0.31623	9491.13	4774.11	10624.2	26.7027	289.064
67	0.25119	9853.38	5643.43	11355.1	29.8015	302.069
68	0.19953	10344.3	6712.65	12331.5	32.9804	309.81
69	0.15849	10818	7858.46	13371.1	35.9955	318.575
70	0.12589	11464.3	9331.18	14781.8	39.1433	327.57
71	0.1	12367	11041.4	16578.8	41.759	338.135