File: data/20200826/Z_p50_1.txt
Index	Frequency (Hz)	Z' (Ω)	-Z'' (Ω)	Z (Ω)	-Phase (°)	Time (s)
1	1000000	2492.57	1880.69	3122.48	37.0352	19.9352
2	794330	2803.62	1778.79	3320.3	32.3936	21.7702
3	630960	3140.14	1709.13	3575.14	28.5588	23.4753
4	501190	3486.33	1619.83	3844.26	24.9206	25.3503
5	398110	3801.73	1506.56	4089.36	21.6176	30.5554
6	316230	4063.19	1397.21	4296.71	18.9766	32.4004
7	251190	4227.4	1234.76	4404.04	16.2822	37.5955
8	199530	4440.48	1129.59	4581.9	14.2724	39.1705
9	158490	4619.55	1018.13	4730.42	12.4291	40.8906
10	125890	4766.56	908.248	4852.32	10.7882	42.5356
11	100000	4882.99	803.526	4948.66	9.34463	44.4856
12	79433	4982.21	708.231	5032.29	8.09051	46.1557
13	63096	5063.47	623.76	5101.74	7.02279	48.1857
14	50119	5130.09	547.427	5159.22	6.09093	49.8357
15	39811	5186.43	481.431	5208.72	5.3033	51.6908
16	31623	5235.04	425.811	5252.32	4.65013	53.6608
17	25119	5276.73	380.666	5290.44	4.1262	55.4658
18	19953	5312.15	341.33	5323.1	3.67646	57.1759
19	15849	5346.95	308.918	5355.87	3.30656	59.0259
20	12589	5378.79	282.085	5386.18	3.00207	60.9359
21	10000	5406.8	261.445	5413.12	2.76837	62.686
22	7943.3	5438.07	245.024	5443.59	2.57984	64.266
23	6309.6	5464.05	230.677	5468.92	2.41743	65.966
24	5011.9	5489.72	220.455	5494.15	2.29964	67.8961
25	3981.1	5517.64	212.39	5521.72	2.20439	69.6111
26	3162.3	5539.14	206.266	5542.98	2.13259	71.4211
27	2511.9	5563.42	202.584	5567.11	2.08542	73.1012
28	1995.3	5594.51	199.756	5598.07	2.04492	75.1712
29	1584.9	5616.04	199.17	5619.57	2.03112	76.9012
30	1258.9	5641.84	198.93	5645.35	2.0194	78.5563
31	1000	5669.2	199.976	5672.72	2.02022	80.2463
32	794.33	5693.69	202.264	5697.28	2.03453	82.1463
33	630.96	5720.73	205.463	5724.42	2.05692	84.0314
34	501.19	5750.5	210.459	5754.35	2.096	85.7464
35	398.11	5775.89	216.834	5779.95	2.14994	87.6514
36	316.23	5807.78	225.66	5812.16	2.2251	89.8965
37	251.19	5836.44	235.169	5841.18	2.30738	91.7015
38	199.53	5865.72	246.817	5870.91	2.40946	93.5666
39	158.49	5896.65	262.464	5902.49	2.54859	95.2916
40	125.89	5932.32	280.061	5938.93	2.70289	96.9966
41	100	5966.62	301.348	5974.23	2.89131	98.6566
42	79.433	6002.82	325.93	6011.66	3.10788	100.732
43	63.096	6043.62	354.234	6054	3.35443	102.872
44	50.119	6080.12	388.079	6092.49	3.65209	104.677
45	39.811	6137.5	420.146	6151.86	3.91611	114.017
46	31.623	6193.01	463.626	6210.34	4.28133	116.262
47	25.119	6246.31	508.379	6266.96	4.65298	118.327
48	19.953	6313.48	559.25	6338.2	5.06207	120.722
49	15.849	6383.24	620.195	6413.29	5.54944	123.047
50	12.589	6453.32	687.443	6489.83	6.08052	125.502
51	10	6540.32	762	6584.56	6.64546	128.067
52	7.9433	6642.79	845.756	6696.42	7.25582	130.837
53	6.3096	6738.15	937.455	6803.05	7.92051	133.542
54	5.0119	6852.76	1047.47	6932.35	8.69058	136.377
55	3.9811	6965.34	1162.5	7061.69	9.47522	139.252
56	3.1623	7097.15	1301.51	7215.5	10.3917	142.137
57	2.5119	7231.93	1451.82	7376.22	11.3513	145.103
58	1.9953	7367.03	1656.86	7551.05	12.6751	148.528
59	1.5849	7592.06	1846.25	7813.32	13.6679	151.763
60	1.2589	7744.53	2114.39	8027.98	15.2706	155.033
61	1	7936.05	2429.61	8299.63	17.0219	160.773
62	0.79433	8181.87	2798.27	8647.16	18.8811	164.468
63	0.63096	8432.39	3228.58	9029.34	20.9507	168.403
64	0.50119	8706.77	3754.84	9481.91	23.3284	172.573
65	0.39811	9021.6	4355.59	10018	25.7711	177.133
66	0.31623	9427.25	5093.66	10715.3	28.3829	182.503
67	0.25119	9848.48	5959.79	11511.4	31.1802	188.668
68	0.19953	10432.6	7054.77	12594	34.0674	195.608
69	0.15849	11046.3	8291.28	13811.8	36.8916	203.474
70	0.12589	11835.2	9700.81	15302.8	39.3401	212.489
71	0.1	12615.3	11282.1	16924.2	41.8069	223.129