File: data/20200826/Z_p53_1.txt
Index	Frequency (Hz)	Z' (Ω)	-Z'' (Ω)	Z (Ω)	-Phase (°)	Time (s)
1	1000000	2901.36	2240.79	3665.93	37.6799	13.935
2	794330	3263.11	2074.63	3866.78	32.4475	15.2351
3	630960	3660.64	1981.58	4162.56	28.4276	16.6101
4	501190	4054.71	1888.05	4472.74	24.9687	18.0751
5	398110	4462.43	1728.53	4785.51	21.174	22.1002
6	316230	4756.58	1591.63	5015.81	18.5011	23.3802
7	251190	4944.39	1399.42	5138.62	15.8032	27.5353
8	199530	5184	1273.14	5338.04	13.7982	28.8603
9	158490	5378.4	1140.98	5498.09	11.9772	30.1403
10	125890	5540.74	1011.39	5632.29	10.3447	31.4304
11	100000	5670.78	889.493	5740.11	8.91452	32.8504
12	79433	5778.03	777.597	5830.12	7.66472	34.1504
13	63096	5862.92	678.645	5902.06	6.60272	35.5304
14	50119	5937.58	591.859	5967.01	5.69245	36.9955
15	39811	5996.44	512.364	6018.29	4.88376	38.3505
16	31623	6047.01	444.898	6063.36	4.20785	39.6055
17	25119	6083.3	393.151	6095.99	3.69776	40.9355
18	19953	6119.23	347.391	6129.08	3.24921	42.2656
19	15849	6151.54	308.376	6159.26	2.86983	43.5906
20	12589	6180.73	277.474	6186.96	2.57048	44.8956
21	10000	6207.41	250.785	6212.47	2.31355	46.2406
22	7943.3	6235.4	228.358	6239.58	2.0974	47.5607
23	6309.6	6257.55	212.028	6261.14	1.94064	48.8907
24	5011.9	6279.58	197.951	6282.7	1.80553	50.2157
25	3981.1	6300.43	186.742	6303.2	1.69773	51.5207
26	3162.3	6322.2	177.06	6324.68	1.60421	52.8058
27	2511.9	6342.56	170.947	6344.86	1.54389	54.2058
28	1995.3	6361.74	164.833	6363.87	1.4842	55.4708
29	1584.9	6382.49	161.145	6384.53	1.44629	56.7408
30	1258.9	6399.42	158.074	6401.37	1.41499	58.0359
31	1000	6421.44	155.679	6423.32	1.38878	59.3559
32	794.33	6440.87	155.091	6442.74	1.37937	60.7459
33	630.96	6461.62	155.155	6463.48	1.37551	62.0709
34	501.19	6481.17	155.821	6483.04	1.37725	63.416
35	398.11	6500.72	158.805	6502.66	1.39939	64.681
36	316.23	6523.14	162.1	6525.15	1.42351	65.981
37	251.19	6543.79	168.077	6545.94	1.47132	67.361
38	199.53	6563.9	176.019	6566.26	1.53609	68.6511
39	158.49	6585.88	185.132	6588.48	1.61018	70.0311
40	125.89	6609.73	197.439	6612.67	1.71097	71.4211
41	100	6630.16	213.559	6633.6	1.84487	72.7811
42	79.433	6653.37	229.245	6657.32	1.97337	74.2112
43	63.096	6684.7	248.13	6689.3	2.12579	75.6562
44	50.119	6677.28	252.193	6682.04	2.16296	77.1412
45	39.811	6747.5	301.833	6754.25	2.56128	86.2714
46	31.623	6781.99	332.179	6790.12	2.80408	88.0764
47	25.119	6820.41	366.706	6830.26	3.0776	89.8015
48	19.953	6863.61	410.372	6875.87	3.42161	91.7315
49	15.849	6913.27	453.794	6928.15	3.75556	93.6815
50	12.589	6963.29	508.09	6981.8	4.1733	95.7216
51	10	7020.51	563.842	7043.11	4.59177	98.0616
52	7.9433	7081.26	632.679	7109.46	5.10557	100.342
53	6.3096	7145.7	711.648	7181.05	5.6874	102.812
54	5.0119	7214.96	805.471	7259.78	6.37007	105.272
55	3.9811	7292.98	917.438	7350.46	7.17	107.717
56	3.1623	7366.73	1048.66	7440.99	8.10165	110.257
57	2.5119	7466.95	1186.88	7560.69	9.0317	112.997
58	1.9953	7549.05	1364.45	7671.37	10.2453	115.567
59	1.5849	7657.17	1578.21	7818.12	11.6461	118.352
60	1.2589	7761.6	1912.39	7993.72	13.8415	121.222
61	1	7908.92	2257.15	8224.7	15.9284	126.302
62	0.79433	8070.84	2679.91	8504.14	18.3687	129.532
63	0.63096	8232.89	3162.15	8819.27	21.0112	133.037
64	0.50119	8409.99	3800.4	9228.81	24.3178	136.882
65	0.39811	8626.33	4548.43	9752.01	27.8014	141.107
66	0.31623	8932.25	5511.86	10496	31.6777	145.822
67	0.25119	9228.63	6577.99	11333	35.4805	151.278
68	0.19953	9655.97	7899.32	12475.5	39.2858	157.618
69	0.15849	10089.8	9531.07	13879.7	43.3688	164.963
70	0.12589	10647.9	11613.6	15756.1	47.4838	173.473
71	0.1	11442.5	13896.6	18001.3	50.5319	183.678