File: data/20200826/Z_p51_1.txt
Index	Frequency (Hz)	Z' (Ω)	-Z'' (Ω)	Z (Ω)	-Phase (°)	Time (s)
1	1000000	2110.6	1442.77	2556.6	34.3558	17.0571
2	794330	2330.76	1353.17	2695.09	30.1383	18.8121
3	630960	2578.9	1301.2	2888.57	26.7735	20.4572
4	501190	2823.68	1229.81	3079.87	23.5349	22.1322
5	398110	3059.22	1117.19	3256.83	20.0616	26.9923
6	316230	3253.61	1033.95	3413.95	17.6295	28.4823
7	251190	3356.39	901.549	3475.36	15.0351	33.3174
8	199530	3511.35	821.194	3606.1	13.1631	35.1024
9	158490	3637.02	737.774	3711.1	11.4669	36.7875
10	125890	3742.74	656.403	3799.86	9.9474	38.3375
11	100000	3825.97	579.258	3869.57	8.6093	39.8825
12	79433	3896.76	509.689	3929.95	7.45188	41.6776
13	63096	3953.91	447.773	3979.18	6.46112	43.2126
14	50119	4001.51	392.181	4020.68	5.59759	44.7626
15	39811	4043.36	344.282	4057.99	4.86685	46.3126
16	31623	4076.65	301.695	4087.79	4.23249	47.9727
17	25119	4105.65	268.015	4114.39	3.73495	49.6077
18	19953	4132.15	239.949	4139.11	3.32337	51.3127
19	15849	4157.27	215.321	4162.84	2.96492	52.9478
20	12589	4176.43	194.464	4180.96	2.6659	54.4978
21	10000	4197.8	178.469	4201.59	2.43446	56.1128
22	7943.3	4214.58	165.127	4217.81	2.2437	57.7279
23	6309.6	4233.21	154.127	4236.02	2.08515	59.3879
24	5011.9	4250.78	145.517	4253.27	1.96064	60.9479
25	3981.1	4266.07	139.086	4268.33	1.86735	62.583
26	3162.3	4283.17	134.24	4285.27	1.79514	64.193
27	2511.9	4296.93	130.758	4298.92	1.743	65.823
28	1995.3	4312.59	129.264	4314.52	1.71685	67.473
29	1584.9	4325.79	128.196	4327.68	1.69748	68.8631
30	1258.9	4342.4	128.717	4344.31	1.69786	70.3981
31	1000	4358.32	130.407	4360.27	1.71385	72.0381
32	794.33	4372.57	132.611	4374.58	1.73714	73.8732
33	630.96	4391.57	136.618	4393.7	1.78184	75.3182
34	501.19	4406.07	141.019	4408.33	1.83316	77.0082
35	398.11	4424.76	147.308	4427.21	1.90677	78.7482
36	316.23	4445.56	155.804	4448.29	2.00723	80.3033
37	251.19	4463.18	165.15	4466.23	2.11913	82.0933
38	199.53	4482.88	177.201	4486.38	2.26363	83.6733
39	158.49	4506.81	191.406	4510.87	2.43192	85.2384
40	125.89	4530.16	208.278	4534.94	2.63237	87.0284
41	100	4554.02	227.464	4559.7	2.85943	88.7684
42	79.433	4582.95	250.537	4589.79	3.12908	90.4985
43	63.096	4611.86	277.584	4620.2	3.44443	92.3185
44	50.119	4635.36	292.716	4644.59	3.61334	93.9385
45	39.811	4679.71	339.188	4691.98	4.14558	103.609
46	31.623	4719.98	380.191	4735.27	4.60518	105.524
47	25.119	4767.59	421.989	4786.23	5.05819	107.324
48	19.953	4818.41	473.42	4841.62	5.61142	109.554
49	15.849	4869.56	532.309	4898.57	6.23843	111.789
50	12.589	4928.96	598.035	4965.11	6.91794	114.214
51	10	4998.36	670.553	5043.14	7.64087	116.834
52	7.9433	5073.69	757.634	5129.94	8.493	119.384
53	6.3096	5154.12	855.862	5224.7	9.42815	121.984
54	5.0119	5248.36	969.749	5337.2	10.4686	124.759
55	3.9811	5345.72	1100.26	5457.78	11.6303	127.419
56	3.1623	5461.38	1252.91	5603.25	12.9208	130.264
57	2.5119	5583.95	1431.05	5764.41	14.3743	133.209
58	1.9953	5712.81	1647.23	5945.55	16.0843	136.139
59	1.5849	5860.44	1846.69	6144.51	17.4903	139.179
60	1.2589	6030.03	2161.22	6405.63	19.7181	142.229
61	1	6222.18	2524.31	6714.73	22.0822	147.795
62	0.79433	6443.64	2939.45	7082.43	24.5215	151.255
63	0.63096	6664.32	3424.23	7492.56	27.1948	154.865
64	0.50119	6924	4010.84	8001.79	30.0823	159.11
65	0.39811	7215.19	4755.76	8641.54	33.3902	163.505
66	0.31623	7546.64	5630.26	9415.5	36.7252	168.6
67	0.25119	7887.95	6650.75	10317.6	40.136	174.19
68	0.19953	8360.86	7903.33	11505.1	43.3886	180.745
69	0.15849	8853.45	9428.36	12933.6	46.8012	188.255
70	0.12589	9344.95	11280.2	14648.2	50.3602	197.2
71	0.1	10005.1	13670.6	16940.7	53.8007	207.611