File: data/20200826/Z_p54_1.txt
Index	Frequency (Hz)	Z' (Ω)	-Z'' (Ω)	Z (Ω)	-Phase (°)	Time (s)
1	1000000	2642.39	2114.21	3384.1	38.6637	15.2001
2	794330	2992.57	1992.22	3595.05	33.6525	17.1901
3	630960	3377.33	1933.47	3891.62	29.7904	18.9501
4	501190	3766.48	1842.73	4193.09	26.07	20.8152
5	398110	4150.24	1722.56	4493.52	22.541	26.0653
6	316230	4461.75	1598.56	4739.47	19.7117	27.6703
7	251190	4646.09	1424.38	4859.52	17.0442	32.6804
8	199530	4893.15	1307.88	5064.92	14.9647	34.4954
9	158490	5096.56	1182.7	5231.99	13.0647	36.2355
10	125890	5269.06	1058.51	5374.33	11.359	38.1205
11	100000	5408.63	940.119	5489.73	9.86053	39.9155
12	79433	5527.53	829.704	5589.46	8.53659	41.7706
13	63096	5622.01	728.84	5669.06	7.38665	43.3956
14	50119	5702.83	642.111	5738.87	6.42417	45.0556
15	39811	5774.77	561.08	5801.96	5.54947	46.7507
16	31623	5828.96	492.598	5849.73	4.83052	48.8457
17	25119	5877.07	436.661	5893.27	4.24922	50.6757
18	19953	5922.69	388.933	5935.45	3.75712	52.5008
19	15849	5958.76	348.193	5968.92	3.34421	54.2308
20	12589	5995.76	314.134	6003.98	2.99914	55.8908
21	10000	6023.57	285.296	6030.32	2.71169	57.7459
22	7943.3	6055.3	261.183	6060.93	2.46981	59.3809
23	6309.6	6081.99	242.606	6086.83	2.28427	61.0459
24	5011.9	6110.19	226.545	6114.39	2.12335	62.711
25	3981.1	6133.4	213.316	6137.11	1.99191	64.431
26	3162.3	6156.72	202.772	6160.06	1.88636	66.081
27	2511.9	6181.91	195.469	6185	1.81106	67.8611
28	1995.3	6207.13	189.856	6210.03	1.75194	69.6561
29	1584.9	6232.39	185.657	6235.15	1.70629	71.4711
30	1258.9	6253.39	182.356	6256.05	1.67034	73.1361
31	1000	6275.29	179.935	6277.87	1.64243	74.8512
32	794.33	6294.41	179.37	6296.96	1.6323	76.7812
33	630.96	6316.58	179.651	6319.14	1.62912	78.4912
34	501.19	6342.37	181.237	6344.96	1.63681	80.2113
35	398.11	6367.46	183.763	6370.11	1.65308	81.8813
36	316.23	6390.24	189.011	6393.03	1.69421	83.7363
37	251.19	6412	193.486	6414.91	1.72841	85.4564
38	199.53	6441.73	202.465	6444.91	1.80023	86.9964
39	158.49	6464.87	212.177	6468.35	1.87977	88.8264
40	125.89	6490.74	224.875	6494.63	1.98425	90.6115
41	100	6524.06	239.187	6528.44	2.09966	92.1615
42	79.433	6553.49	254.672	6558.44	2.22542	94.0565
43	63.096	6587.07	272.878	6592.72	2.37219	96.1266
44	50.119	6635.05	295.247	6641.61	2.54788	97.9116
45	39.811	6653.59	320.142	6661.29	2.7547	107.512
46	31.623	6691.27	350.072	6700.42	2.99486	109.452
47	25.119	6740.04	378.302	6750.65	3.2125	111.352
48	19.953	6781.81	416.066	6794.56	3.51072	113.532
49	15.849	6825.77	460.223	6841.27	3.85729	115.777
50	12.589	6877.8	509.143	6896.62	4.23371	118.127
51	10	6935.35	566.336	6958.43	4.66837	120.772
52	7.9433	6994.02	635.458	7022.82	5.19149	123.672
53	6.3096	7056.66	714.62	7092.76	5.78256	126.367
54	5.0119	7129.47	812.477	7175.61	6.5014	129.157
55	3.9811	7209.67	926.086	7268.91	7.31959	131.982
56	3.1623	7296.08	1054.28	7371.86	8.22226	134.987
57	2.5119	7381.99	1227.06	7483.28	9.43761	137.877
58	1.9953	7493.71	1389.28	7621.41	10.503	141.027
59	1.5849	7661.68	1651.41	7837.63	12.1635	144.262
60	1.2589	7736.48	1914.08	7969.74	13.8964	147.648
61	1	7895.14	2230.69	8204.22	15.7771	153.353
62	0.79433	8077.55	2627.79	8494.24	18.0207	156.983
63	0.63096	8260.98	3076.3	8815.18	20.4248	161.033
64	0.50119	8490.46	3650.74	9242.07	23.2668	165.448
65	0.39811	8714.47	4321.73	9727.25	26.378	170.183
66	0.31623	9006.24	5141.17	10370.3	29.7197	175.388
67	0.25119	9306.63	6180.63	11172	33.5885	181.268
68	0.19953	9719.85	7290.16	12150	36.8709	188.008
69	0.15849	10183.8	8742.1	13421.4	40.644	195.823
70	0.12589	10646.1	10480.2	14939	44.5499	204.824
71	0.1	11161.2	12718.4	16921.3	48.731	215.639