File: data/20200826/Z_p52_1.txt
Index	Frequency (Hz)	Z' (Ω)	-Z'' (Ω)	Z (Ω)	-Phase (°)	Time (s)
1	1000000	2661.64	1838.75	3235.02	34.6379	13.628
2	794330	2937.22	1685.85	3386.65	29.8542	15.3781
3	630960	3256.04	1595.34	3625.87	26.1032	17.0281
4	501190	3559.51	1483.59	3856.31	22.6262	18.9281
5	398110	3858.56	1335.25	4083.06	19.0881	29.3833
6	316230	4084.01	1217.07	4261.5	16.5946	30.9684
7	251190	4206.42	1047.67	4334.93	13.9858	35.9035
8	199530	4382.42	940.881	4482.28	12.1171	37.6935
9	158490	4524.12	833.614	4600.28	10.4402	39.4485
10	125890	4636.7	730.419	4693.88	8.95222	41.3686
11	100000	4722.68	634.372	4765.09	7.65045	43.0786
12	79433	4794.8	550.555	4826.31	6.5502	44.8786
13	63096	4853.86	475.886	4877.14	5.59954	46.5537
14	50119	4899.29	411.537	4916.55	4.80153	48.2337
15	39811	4940.73	354.758	4953.45	4.10695	49.7987
16	31623	4970.89	308.25	4980.44	3.54842	51.4737
17	25119	4996	269.323	5003.25	3.0857	53.1038
18	19953	5021.56	238.865	5027.24	2.72339	54.6438
19	15849	5042.49	213.732	5047.01	2.4271	56.3138
20	12589	5062.67	191.239	5066.28	2.16328	57.9339
21	10000	5079.53	174.701	5082.54	1.96981	59.7239
22	7943.3	5101.28	160.514	5103.81	1.80224	61.2189
23	6309.6	5115.95	148.804	5118.11	1.66605	62.869
24	5011.9	5131.54	139.355	5133.43	1.55557	64.519
25	3981.1	5147.81	131.876	5149.5	1.46747	66.164
26	3162.3	5163.09	126.608	5164.64	1.40472	67.849
27	2511.9	5173.51	121.914	5174.94	1.34993	69.6541
28	1995.3	5190.63	117.904	5191.97	1.30124	71.1691
29	1584.9	5202.45	114.612	5203.71	1.26204	72.6891
30	1258.9	5219.86	112.121	5221.06	1.23051	74.2942
31	1000	5232.62	111.04	5233.79	1.21567	76.0192
32	794.33	5245.24	109.348	5246.38	1.19428	77.8792
33	630.96	5262.3	108.194	5263.41	1.17784	79.4393
34	501.19	5275.78	108.16	5276.89	1.17447	81.1293
35	398.11	5290.85	108.544	5291.96	1.17529	82.8043
36	316.23	5302.86	109.233	5303.98	1.18007	84.3694
37	251.19	5318.17	111.745	5319.34	1.20372	85.9894
38	199.53	5333.38	115.396	5334.63	1.23949	87.6694
39	158.49	5346.75	119.346	5348.08	1.2787	89.2994
40	125.89	5360.02	125.797	5361.49	1.34445	90.8895
41	100	5377.58	134.064	5379.25	1.4281	92.5145
42	79.433	5395.37	143.614	5397.29	1.52474	94.1545
43	63.096	5410.18	153.473	5412.36	1.6249	95.8046
44	50.119	5419.13	183.748	5422.25	1.942	97.5496
45	39.811	5445.11	187.333	5448.33	1.97042	106.815
46	31.623	5469.25	203.736	5473.05	2.13334	108.68
47	25.119	5491.81	225.775	5496.45	2.35417	110.65
48	19.953	5516.71	252.603	5522.49	2.62166	112.755
49	15.849	5545.01	282.432	5552.2	2.91581	115.12
50	12.589	5574.45	315.537	5583.37	3.23973	117.355
51	10	5604.67	355.796	5615.95	3.63238	120.085
52	7.9433	5643.32	404.193	5657.77	4.09671	122.715
53	6.3096	5684.88	461.906	5703.61	4.64517	125.39
54	5.0119	5722.3	524.518	5746.29	5.23722	128.115
55	3.9811	5773.25	602.61	5804.61	5.95894	130.79
56	3.1623	5826.54	693.952	5867.72	6.79204	133.43
57	2.5119	5871.66	808.434	5927.05	7.83943	136.12
58	1.9953	5906.91	978.062	5987.33	9.4017	139.015
59	1.5849	6015.63	1154.98	6125.5	10.8683	142.04
60	1.2589	6093.87	1321.79	6235.57	12.2381	145.12
61	1	6178.09	1518.77	6362.03	13.8113	150.611
62	0.79433	6294.34	1798.24	6546.17	15.9442	154.226
63	0.63096	6392.82	2126.08	6737.09	18.3957	157.956
64	0.50119	6503.9	2542.17	6983.08	21.349	161.971
65	0.39811	6668.14	3075.82	7343.35	24.7625	166.501
66	0.31623	6836.09	3686.44	7766.72	28.3363	171.441
67	0.25119	6986.4	4472.9	8295.58	32.6286	177.131
68	0.19953	7258	5368.86	9027.91	36.4909	183.886
69	0.15849	7537.72	6493.3	9948.87	40.7429	191.351
70	0.12589	7800.66	7898.78	11101.4	45.3581	200.276
71	0.1	8193.6	9706.53	12702.4	49.8312	210.802