File: data/20200826/Z_p55_1.txt
Index	Frequency (Hz)	Z' (Ω)	-Z'' (Ω)	Z (Ω)	-Phase (°)	Time (s)
1	1000000	2700.03	2107.47	3425.14	37.9733	18.1191
2	794330	3036.49	1977.46	3623.62	33.0735	19.6642
3	630960	3418.45	1919.54	3920.51	29.3152	21.6442
4	501190	3805.33	1832.43	4223.54	25.7129	23.7692
5	398110	4189.67	1713.58	4526.55	22.2446	29.0093
6	316230	4490.19	1599.67	4766.63	19.6088	30.6144
7	251190	4676.8	1423.85	4888.75	16.9329	35.5945
8	199530	4923.9	1311.43	5095.55	14.914	37.1845
9	158490	5130.97	1190.64	5267.3	13.0642	38.8045
10	125890	5306.15	1068.07	5412.58	11.3809	40.4145
11	100000	5447.94	950.362	5530.21	9.89536	42.1446
12	79433	5570.76	841.658	5633.98	8.59155	43.8346
13	63096	5669.55	741.47	5717.83	7.45092	45.6396
14	50119	5754.3	649.198	5790.8	6.43687	47.3097
15	39811	5824.53	571.264	5852.47	5.6016	49.0697
16	31623	5883.15	501.578	5904.5	4.87307	50.8297
17	25119	5927.24	445.405	5943.95	4.29744	52.7048
18	19953	5975.54	395.862	5988.64	3.79014	54.3598
19	15849	6016.89	354.265	6027.31	3.36959	55.9998
20	12589	6050.77	319.481	6059.2	3.02241	57.6499
21	10000	6084.37	289.649	6091.26	2.72553	59.4699
22	7943.3	6111.65	266.688	6117.46	2.49858	61.2099
23	6309.6	6139.45	246.662	6144.41	2.30071	62.79
24	5011.9	6166.98	230.953	6171.3	2.14472	64.32
25	3981.1	6189.74	218.021	6193.58	2.01729	65.775
26	3162.3	6216.16	209.642	6219.7	1.93159	67.435
27	2511.9	6238.65	201.844	6241.92	1.85309	69.0001
28	1995.3	6260.48	196.503	6263.56	1.7978	70.5701
29	1584.9	6286.91	193.3	6289.88	1.76109	72.1001
30	1258.9	6307.98	192.114	6310.9	1.74444	73.5852
31	1000	6334.03	192.52	6336.95	1.74094	75.0702
32	794.33	6353.95	193.587	6356.9	1.7451	76.6952
33	630.96	6378.93	196.773	6381.97	1.76686	78.2752
34	501.19	6406.08	201.593	6409.25	1.80244	79.8603
35	398.11	6429.48	208.569	6432.86	1.858	81.3253
36	316.23	6456.2	217.475	6459.86	1.92926	82.8703
37	251.19	6483.24	230.075	6487.32	2.03244	84.4354
38	199.53	6512.22	244.253	6516.8	2.14798	85.9304
39	158.49	6543.71	262.556	6548.97	2.29767	87.5054
40	125.89	6577.4	283.397	6583.51	2.46715	89.1954
41	100	6612.37	309.82	6619.62	2.68261	90.6855
42	79.433	6647.16	337.74	6655.73	2.90868	92.4555
43	63.096	6687.56	370.922	6697.84	3.17463	94.1805
44	50.119	6736.03	416.76	6748.91	3.54039	95.9506
45	39.811	6781.43	449.21	6796.29	3.7898	105.501
46	31.623	6836.32	498.334	6854.46	4.16921	107.431
47	25.119	6895.96	553.386	6918.13	4.58803	109.326
48	19.953	6962.63	613.755	6989.63	5.03759	111.516
49	15.849	7033.47	681.191	7066.38	5.53184	113.811
50	12.589	7112.59	763.425	7153.45	6.12635	116.106
51	10	7197.4	854.663	7247.97	6.77194	118.811
52	7.9433	7290.29	956.589	7352.78	7.47531	121.636
53	6.3096	7396.83	1084.18	7475.87	8.33866	124.381
54	5.0119	7505.8	1220.34	7604.36	9.23469	127.081
55	3.9811	7635.78	1387.04	7760.73	10.2955	130.076
56	3.1623	7773.84	1584.14	7933.6	11.5179	132.946
57	2.5119	7944.78	1775.07	8140.67	12.5945	135.826
58	1.9953	8046.87	2034.43	8300.06	14.1883	138.801
59	1.5849	8369.25	2401.7	8707.04	16.0117	141.891
60	1.2589	8497.25	2717.62	8921.25	17.7355	145.011
61	1	8736.09	3193.45	9301.47	20.0797	150.762
62	0.79433	9007.39	3719.51	9745.14	22.4377	154.332
63	0.63096	9301.44	4337.36	10263	25.0001	158.182
64	0.50119	9624.75	5083.01	10884.5	27.8394	162.352
65	0.39811	10017.5	6017.22	11685.8	30.992	167.052
66	0.31623	10460.1	7117.74	12652.1	34.2338	172.162
67	0.25119	10960	8383.06	13798.5	37.4115	178.037
68	0.19953	11551.4	10041.1	15305.5	40.999	184.727
69	0.15849	12204.1	11963.4	17089.9	44.4295	192.422
70	0.12589	13032.4	14214.6	19284.6	47.4844	201.288
71	0.1	13743.2	16914.3	21793.8	50.9054	211.953