File: data/20250114/Z_CNT1p5_1.txt
Index	Frequency (Hz)	Z' (Ω)	-Z'' (Ω)	Z (Ω)	-Phase (°)	Time (s)
1	1000000	1863.27	4202.09	4596.67	66.0868	53.0448
2	794328.25	2351.65	4949.7	5479.94	64.5871	63.39
3	630957.375	2949.53	5810.61	6516.35	63.0872	68.7951
4	501187	3675.21	6820.82	7747.95	61.6832	71.5051
5	398107	4531.37	7954.77	9154.87	60.3323	80.0953
6	316228	5546.02	9241.18	10777.6	59.0303	82.2803
7	251189	6802.49	10699.5	12678.8	57.5527	88.9605
8	199526	8259.11	12367.3	14871.5	56.2642	91.1255
9	158489	10000.8	14222.9	17386.9	54.8872	93.5056
10	125893	12173.6	16240.4	20296.4	53.1452	95.1406
11	100000	14692	18373.7	23525.5	51.3534	96.8706
12	79432.8	17599.1	20614.2	27104.9	49.5114	102.231
13	63095.7	21233.8	22653.3	31049.1	46.8525	106.846
14	50118.7	25378.1	24575.5	35327.1	44.0795	114.091
15	39810.7	30135.1	26172.2	39913.7	40.9741	116.816
16	31622.8	35118.4	27356.6	44516.1	37.9179	125.351
17	25118.9	40401.1	28013.9	49163.3	34.7372	128.941
18	19952.6	45819.2	28071.5	53734.6	31.494	131.561
19	15848.9	51055.7	27488.4	57985.3	28.298	139.691
20	12589.3	56039.2	26313.8	61909.7	25.1529	150.197
21	10000	60621.4	24826.2	65508	22.2705	158.517
22	7943.28	64664.9	22967.9	68622.7	19.5542	164.832
23	6309.57	68286.8	20925.7	71421.1	17.0371	171.417
24	5011.87	71222.8	18885.3	73684.1	14.8507	183.317
25	3981.07	73798.2	16845.1	75696.3	12.858	185.422
26	3162.28	75849	14841.9	77287.5	11.0716	187.327
27	2511.89	77682.9	13053	78771.9	9.53827	189.152
28	1995.26	79122.4	11478.2	79950.6	8.25423	191.002
29	1584.89	80317.1	10017.2	80939.4	7.10926	192.732
30	1258.93	81377.5	8826.67	81854.8	6.19043	194.482
31	1000	82173.8	7850.38	82547.9	5.45713	196.567
32	794.328	83035.7	6723.47	83307.4	4.62919	198.748
33	630.957	83690.9	5945.43	83901.9	4.06348	200.773
34	501.187	84305.7	5253.87	84469.2	3.56602	202.568
35	398.107	84821.8	4702.02	84952	3.17289	204.368
36	316.228	85290.7	4237.54	85395.9	2.84431	206.388
37	251.189	85724.1	3861.53	85811.1	2.5792	208.418
38	199.526	86118.7	3560.36	86192.3	2.3674	210.473
39	158.489	86501.427	3293.36	86564.1	2.18036	212.513
40	125.893	86852.1	3097.12	86907.3	2.04228	214.583
41	100	87207.3	2936.77	87256.7	1.92875	216.658
42	79.4328	87544.2	2884.58	87591.7	1.88721	218.663
43	63.0957	87878.8	2776.33	87922.7	1.80953	220.873
44	50.1187	88186.9	2697.44	88228.2	1.752	222.968
45	39.8107	88528.5	2651.9	88568.2	1.7158	232.878
46	31.6228	88862.4	2626.48	88901.2	1.69298	235.118
47	25.1189	89205.2	2627.68	89243.9	1.68725	237.403
48	19.9526	89548.2	2638.19	89587	1.68751	240.178
49	15.8489	89916.4	2662.78	89955.9	1.69626	242.818
50	12.5893	90281.5	2703.38	90321.9	1.71515	245.613
51	10	90682	2754.49	90723.9	1.73984	248.413
52	7.94328	91062.5	2904.6	91108.8	1.82693	251.448
53	6.30957	91449.6	2936.75	91496.7	1.83932	254.614
54	5.01187	91894.8	2986.51	91943.4	1.86141	257.674
55	3.98107	92355.5	3030.7	92405.2	1.87952	260.859
56	3.16228	92799.5	3075.75	92850.5	1.89832	264.019
57	2.51189	93265.3	3126.07	93317.7	1.91972	267.284
58	1.99526	93728.2	3173.54	93781.888	1.93924	270.804
59	1.58489	94221	3205.87	94275.5	1.94874	274.104
60	1.25893	94714.9	3230.37	94770	1.95339	277.494
61	1	95201.1	3247.66	95256.4	1.95381	283.879
62	0.794328	95717.4	3227.76	95771.9	1.93138	287.824
63	0.630957	96202.6	3219.83	96256.4	1.91693	291.909
64	0.501187	96692.8	3199.87	96745.7	1.89541	296.484
65	0.398107	97210.8	3175.36	97262.6	1.87088	301.444
66	0.316228	97698.1	3130	97748.2	1.83498	306.685
67	0.251189	98143.5	3075.29	98191.7	1.79475	312.8
68	0.199526	98595.1	3011.7	98641.1	1.74962	319.5
69	0.158489	99046.4	2941.41	99090	1.70103	327.295
70	0.125893	99488.2	2850.84	99529	1.64136	336.46
71	0.1	99921.7	2764.05	99959.972	1.58452	347.15