File: data/20250114/Z_CNT1_1.txt
Index	Frequency (Hz)	Z' (Ω)	-Z'' (Ω)	Z (Ω)	-Phase (°)	Time (s)
1	1000000	38247.8	27741.2	47249	35.9534	53.0448
2	794328.25	37606.5	33410.1	50303.9	41.6182	63.39
3	630957.375	39042.3	39945.8	55856.7	45.6554	68.7951
4	501187	41578.1	47216.9	62914	48.6336	71.5051
5	398107	45408.3	56520.1	72501.3	51.2216	80.0953
6	316228	52044.6	67231.1	85021.5	52.256	82.2803
7	251189	60699.4	80188	100571	52.8756	88.9605
8	199526	70673	96400.5	119531	53.7542	91.1255
9	158489	85760.5	114765	143268	53.2302	93.5056
10	125893	104862	135825	171594	52.3305	95.1406
11	100000	125329	156932	200836	51.3884	96.8706
12	79432.8	190419	157512	247122	39.5972	102.231
13	63095.7	230004	166102	283711	35.8356	106.846
14	50118.7	272970	171315	322275	32.1122	114.091
15	39810.7	320684.453	174440	365058	28.5444	116.816
16	31622.8	364101	173787	403449	25.5154	125.351
17	25118.9	405603	167555	438849	22.4456	128.941
18	19952.6	442970	159402	470777	19.7911	131.561
19	15848.9	474970	149452	497927.958	17.4665	139.691
20	12589.3	502916	135599.959	520876	15.0897	150.197
21	10000	526613	120157.084	540148	12.8531	158.517
22	7943.28	552618.996	50176.8	554892	5.18813	164.832
23	6309.57	566056	42865.3	567677	4.33053	171.417
24	5011.87	576116	37970.6	577366	3.7708	183.317
25	3981.07	586032	32751.4	586947	3.19874	185.422
26	3162.28	592017	27827	592671	2.69113	187.327
27	2511.89	596022	27080.8	596637.156	2.6015	189.152
28	1995.26	603916	25160.2	604439	2.38566	191.002
29	1584.89	605118	20959.3	605481	1.98374	192.732
30	1258.93	603210	20073.5	603544	1.90598	194.482
31	1000	613913	17357.9	614158	1.61956	196.567
32	794.328	614439	19222.7	614740	1.79191	198.748
33	630.957	615417	15763.1	615619	1.46723	200.773
34	501.187	618273	15668.4	618471	1.45169	202.568
35	398.107	620261	14972	620442	1.38275	204.368
36	316.228	621493	14555.9	621663	1.34167	206.388
37	251.189	623872	14300.4	624036	1.3131	208.418
38	199.526	625662	13201.5	625801.075	1.20877	210.473
39	158.489	627451	13006.2	627586	1.18749	212.513
40	125.893	629455.96	12934.2	629589	1.17716	214.583
41	100	630911	12543.1	631035	1.13895	216.658
42	79.4328	632650	12401.3	632771	1.12298	218.663
43	63.0957	634056	11845.4	634167	1.07027	220.873
44	50.1187	635598	11274.3	635698	1.01621	222.968
45	39.8107	637042	10783.8	637133	0.96981	232.878
46	31.6228	638495	10233.7	638577	0.918248	235.118
47	25.1189	639963	9823.84	640038	0.879459	237.403
48	19.9526	641445	9361.05	641513	0.836098	240.178
49	15.8489	642471	8920.39	642533	0.795472	242.818
50	12.5893	643742	8359.88	643796	0.744023	245.613
51	10	644817	8029.04	644867	0.71339	248.413
52	7.94328	645956	8648.88	646014	0.767103	251.448
53	6.30957	647140	8028.19	647190	0.710754	254.614
54	5.01187	648305	7291.44	648346	0.644375	257.674
55	3.98107	649386	6646.57	649420	0.586412	260.859
56	3.16228	650345	6094.28	650374	0.536893	264.019
57	2.51189	650960	5234.89	650981	0.460751	267.284
58	1.99526	651647	4724.87	651664	0.415425	270.804
59	1.58489	652633	4135.38	652646	0.363047	274.104
60	1.25893	653051	3530.99	653060	0.309791	277.494
61	1	653422	2887.31	653428	0.253174	283.879
62	0.794328	655772	4193.01	655785	0.366344	287.824
63	0.630957	654331	3886.9	654342.049	0.340348	291.909
64	0.501187	654351	2823.14	654358	0.247196	296.484
65	0.398107	654045	1678.65	654047	0.147053	301.444
66	0.316228	653939	628.75	653940	0.0550887	306.685
67	0.251189	653772	-306.217	653772	-0.0268365	312.8
68	0.199526	653643	-1294.92	653645	-0.113507	319.5
69	0.158489	653270	-2353.94	653275	-0.206454	327.295
70	0.125893	652893.949	-3362.77	652902.609	-0.295102	336.46
71	0.1	651952	-4424.13	651967	-0.388802	347.15