File: data/20200212/OCP_p29_1.txt
Time (s)	WE(1).Potential (V)	Corrected time (s)	Index	dWE(1).Potential/dt (V/s)	OCP value (V)
4.53381	-0.000543213	0	1	0	-0.000842554
5.13381	-0.000537109	0.6	7	-0.00021871
5.73381	-0.000546265	1.2	13	-0.000111897
6.33381	-0.000549316	1.8	19	1.52577e-05
6.93381	-0.000543213	2.4	25	4.57763e-05
7.53381	-0.000546265	3	31	0.000218708
8.13381	-0.000543213	3.6	37	0.000157675
8.73381	-0.000552368	4.2	43	-0.000183105
9.33381	-0.000546265	4.8	49	0.000147502
9.93381	-0.000549316	5.4	55	-8.138e-05
10.5338	-0.000552368	6	61	-0.000340778
11.1338	-0.000552368	6.6	67	8.13794e-05
11.7338	-0.000549316	7.2	73	0.000147503
12.3338	-0.000552368	7.8	79	-0.000295003
12.9338	-0.000549316	8.4	85	-1.01717e-05
13.5338	-0.000558472	9	91	9.15522e-05
14.1338	-0.000558472	9.6	97	5.59488e-05
14.7338	-0.000564575	10.2	103	-8.64666e-05
15.3338	-0.000567627	10.8	109	-0.000142416
15.9338	-0.000558472	11.4	115	6.61213e-05
16.5338	-0.000558472	12	121	-0.000132241
17.1338	-0.000561523	12.6	127	2.03464e-05
17.7338	-0.000567627	13.2	133	-0.000122071
18.3338	-0.00057373	13.8	139	5.59488e-05
18.9338	-0.000576782	14.4	145	0.000122069
19.5338	-0.000582886	15	151	9.1552e-05
20.1338	-0.000579834	15.6	157	-9.15525e-05
20.7338	-0.000585937	16.2	163	0.000137327
21.3338	-0.000582886	16.8	169	0.000137329
21.9338	-0.000579834	17.4	175	0.000188191
22.5338	-0.000588989	18	181	-0.000239053
23.1338	-0.000582886	18.6	187	0.000122069
23.7338	-0.000595093	19.2	193	-0.000249225
24.3338	-0.000595093	19.8	199	1.52585e-05
24.9338	-0.000601196	20.4	205	-0.000305176
25.5338	-0.000598145	21	211	1.94025e-10
26.1338	-0.000598145	21.6	217	2.54318e-05
26.7338	-0.000595093	22.2	223	0.000305174
27.3338	-0.000598145	22.8	229	0.00031026
27.9338	-0.000595093	23.4	235	4.57767e-05
28.5338	-0.000604248	24	241	-0.000213621
29.1338	-0.000604248	24.6	247	-0.000340777
29.7338	-0.000604248	25.2	253	-0.000162758
30.3338	-0.000610352	25.8	259	-0.00020345
30.9338	-0.0006073	26.4	265	-1.94025e-10
31.5338	-0.000604248	27	271	2.03447e-05
32.1338	-0.000610352	27.6	277	-0.000101725
32.7338	-0.000619507	28.2	283	-0.000157672
33.3338	-0.000610352	28.8	289	1.01717e-05
33.9338	-0.000610352	29.4	295	-0.000183104
34.5338	-0.0006073	30	301	0.00013733
35.1338	-0.000604248	30.6	307	0.000167847
35.7338	-0.000610352	31.2	313	0
36.3338	-0.000613403	31.8	319	0.000147501
36.9338	-0.000604248	32.4	325	0.000203451
37.5338	-0.000613403	33	331	3.05176e-05
38.1338	-0.000610352	33.6	337	0.000157673
38.7338	-0.000616455	34.2	343	-0.000264485
39.3338	-0.000628662	34.8	349	-0.000279743
39.9338	-0.000622559	35.4	355	-0.000249224
40.5338	-0.00062561	36	361	8.13785e-05
41.1338	-0.000613403	36.6	367	0.000193276
41.7338	-0.000616455	37.2	373	1.01719e-05
42.3338	-0.00062561	37.8	379	-5.59492e-05
42.9338	-0.000628662	38.4	385	-0.000101726
43.5338	-0.00062561	39	391	7.12083e-05
44.1338	-0.00062561	39.6	397	-0.000127157
44.7338	-0.000634766	40.2	403	-0.00018819
45.3338	-0.000637817	40.8	409	1.01723e-05
45.9338	-0.000634766	41.4	415	-4.57755e-05
46.5338	-0.000637817	42	421	-0.000111897
47.1338	-0.000631714	42.6	427	-0.000116985
47.7338	-0.000631714	43.2	433	0.000132241
48.3338	-0.000650024	43.8	439	-0.000122069
48.9338	-0.000646973	44.4	445	0.000101724
49.5338	-0.000646973	45	451	-0.000193278
50.1338	-0.000646973	45.6	457	-0.000127157
50.7338	-0.000650024	46.2	463	-5.5947e-05
51.3338	-0.000650024	46.8	469	-5.59478e-05
51.9338	-0.000637817	47.4	475	0.000325519
52.5338	-0.000653076	48	481	4.57757e-05
53.1338	-0.000656128	48.6	487	-6.61217e-05
53.7338	-0.000643921	49.2	493	0.000350952
54.3338	-0.000662231	49.8	499	-0.000122071
54.9338	-0.00065918	50.4	505	-0.000137329
55.5338	-0.000653076	51	511	0.000396726
56.1338	-0.000668335	51.6	517	0.000162759
56.7338	-0.000671387	52.2	523	-0.000157673
57.3338	-0.000665283	52.8	529	-0.0001475
57.9338	-0.000668335	53.4	535	6.61215e-05
58.5338	-0.000671387	54	541	-4.57767e-05
59.1338	-0.000674438	54.6	547	-0.000116984
59.7338	-0.000668335	55.2	553	0.000101726
60.3338	-0.00067749	55.8	559	0.000116982
60.9338	-0.00067749	56.4	565	0.000264484
61.5338	-0.000680542	57	571	0.000101725
62.1338	-0.000683594	57.6	577	2.03449e-05
62.7338	-0.000686646	58.2	583	-7.6294e-05
63.3338	-0.000683594	58.8	589	0.000203451
63.9338	-0.000686646	59.4	595	0.000228882
64.5338	-0.000689697	60	601	-4.57757e-05
65.1338	-0.000689697	60.6	607	-0.000183105
65.7338	-0.000698853	61.2	613	-0.000213621
66.3338	-0.000689697	61.8	619	5.08626e-05
66.9338	-0.000695801	62.4	625	0.000264486
67.5338	-0.000698853	63	631	2.54308e-05
68.1338	-0.000701904	63.6	637	-0.000111898
68.7338	-0.000704956	64.2	643	-0.000259399
69.3338	-0.000701904	64.8	649	0.000127157
69.9338	-0.000701904	65.4	655	-2.03451e-05
70.5338	-0.000708008	66	661	-0.000111898
71.1338	-0.000704956	66.6	667	0.000137329
71.7338	-0.000704956	67.2	673	1.94025e-10
72.3338	-0.00071106	67.8	679	0.000116984
72.9338	-0.00071106	68.4	685	-3.5603e-05
73.5338	-0.000717163	69	691	1.52593e-05
74.1338	-0.00071106	69.6	697	3.56039e-05
74.7338	-0.000717163	70.2	703	-0.000183105
75.3338	-0.00071106	70.8	709	6.61213e-05
75.9338	-0.000717163	71.4	715	0.000147503
76.5338	-0.000723267	72	721	-0.000193279
77.1338	-0.000726318	72.6	727	-0.000157672
77.7338	-0.000723267	73.2	733	-3.56039e-05
78.3338	-0.000723267	73.8	739	-0.000228881
78.9338	-0.000723267	74.4	745	5.59478e-05
79.5338	-0.000732422	75	751	-1.52593e-05
80.1338	-0.000735474	75.6	757	-0.000361124
80.7338	-0.000726318	76.2	763	0.00034078
81.3338	-0.00072937	76.8	769	-0.00026957
81.9338	-0.00072937	77.4	775	-0.000233966
82.5338	-0.000732422	78	781	-0.000147501
83.1338	-0.000726318	78.6	787	7.12073e-05
83.7338	-0.000726318	79.2	793	8.13806e-05
84.3338	-0.00072937	79.8	799	-3.56035e-05
84.9338	-0.000732422	80.4	805	-4.57767e-05
85.5338	-0.000723267	81	811	0.000259398
86.1338	-0.000732422	81.6	817	-0.000203449
86.7338	-0.000732422	82.2	823	-0.00012207
87.3338	-0.000726318	82.8	829	4.06897e-05
87.9338	-0.00072937	83.4	835	0.00013733
88.5338	-0.00072937	84	841	-8.1381e-05
89.1338	-0.000741577	84.6	847	-0.000183105
89.7338	-0.000735474	85.2	853	-6.61207e-05
90.3338	-0.000735474	85.8	859	1.01727e-05
90.9338	-0.000741577	86.4	865	5.59488e-05
91.5338	-0.000744629	87	871	8.13806e-05
92.1338	-0.000747681	87.6	877	-0.000218709
92.7338	-0.000750732	88.2	883	0.000345864
93.3338	-0.000750732	88.8	889	-0.000315347
93.9338	-0.000747681	89.4	895	0.000127157
94.5338	-0.000753784	90	901	-1.01729e-05
95.1338	-0.000747681	90.6	907	0.000111898
95.7338	-0.000756836	91.2	913	0.000228881
96.3338	-0.000769043	91.8	919	-9.66403e-05
96.9338	-0.000762939	92.4	925	0.000162761
97.5338	-0.000769043	93	931	0.000137329
98.1338	-0.000769043	93.6	937	4.57755e-05
98.7338	-0.000769043	94.2	943	-0.000162759
99.3338	-0.000772095	94.8	949	3.56039e-05
99.9338	-0.000775146	95.4	955	-0.000101726
100.534	-0.000775146	96	961	-6.10359e-05
101.134	-0.000778198	96.6	967	9.15533e-05
101.734	-0.000772095	97.2	973	2.03447e-05
102.334	-0.000778198	97.8	979	0.000172933
102.934	-0.000787354	98.4	985	-0.000122069
103.534	-0.00078125	99	991	-2.54308e-05
104.134	-0.000784302	99.6	997	0.000101724
104.734	-0.000775146	100.2	1003	0.000371295
105.334	-0.000793457	100.8	1009	-0.000259398
105.934	-0.000793457	101.4	1015	-9.15525e-05
106.534	-0.000790405	102	1021	-7.12085e-05
107.134	-0.000799561	102.6	1027	-0.000432331
107.734	-0.000793457	103.2	1033	-3.56041e-05
108.334	-0.000799561	103.8	1039	-6.61213e-05
108.934	-0.000796509	104.4	1045	-5.08617e-05
109.534	-0.000808716	105	1051	-0.000142415
110.134	-0.000796509	105.6	1057	3.05176e-05
110.734	-0.000802612	106.2	1063	0.000101725
111.334	-0.000808716	106.8	1069	-0.000284829
111.934	-0.000808716	107.4	1075	0.000147503
112.534	-0.000811768	108	1081	-0.000101726
113.134	-0.000814819	108.6	1087	-4.57763e-05
113.734	-0.000820923	109.2	1093	-1.01727e-05
114.334	-0.000814819	109.8	1099	-0.000127156
114.934	-0.000827026	110.4	1105	8.6467e-05
115.534	-0.000830078	111	1111	-0.000305175
116.134	-0.000817871	111.6	1117	0.00013733
116.734	-0.000823975	112.2	1123	4.57767e-05
117.334	-0.00083313	112.8	1129	-0.000239053
117.934	-0.000830078	113.4	1135	-0.000203451
118.534	-0.000827026	114	1141	0.00036621
119.134	-0.000830078	114.6	1147	-0.000106811
119.734	-0.000836182	115.2	1153	0.000249227
120.334	-0.000845337	115.8	1159	-9.15529e-05
120.934	-0.000842285	116.4	1165	-9.15531e-05
121.534	-0.000845337	117	1171	-0.000249226
122.134	-0.000839233	117.6	1177	6.61217e-05
122.734	-0.000842285	118.2	1183	-3.05174e-05
123.334	-0.000839233	118.8	1189	8.64658e-05
123.934	-0.000845337	119.4	1195	1.01719e-05
124.434	-0.000839233	119.9	1200	1.01733e-05