File: data/20200212/OCP_p27_1.txt
Time (s)	WE(1).Potential (V)	Corrected time (s)	Index	dWE(1).Potential/dt (V/s)	Cutoffs	OCP value (V)
10.6989	-0.0268433	0	1	0	dWE(1).Potential/dt < 1E-06 V/s	-0.0275877
10.7989	-0.0268402	0.1	2	3.051e-05
10.8989	-0.0268463	0.2	3	-0.000106822	dWE(1).Potential/dt < 1E-06 V/s
10.9989	-0.0268463	0.3	4	8.13973e-05
11.0989	-0.0268433	0.4	5	3.56385e-05
11.1989	-0.0268494	0.5	6	-0.000147515	dWE(1).Potential/dt < 1E-06 V/s
11.2989	-0.0268433	0.6	7	0.000193274
11.3989	-0.0268524	0.7	8	-0.000259416	dWE(1).Potential/dt < 1E-06 V/s
11.4989	-0.0268433	0.8	9	0.000295036
11.5989	-0.0268524	0.9	10	-0.000305212	dWE(1).Potential/dt < 1E-06 V/s
11.6989	-0.0268585	1	11	2.54685e-05
11.7989	-0.0268524	1.1	12	0.00015255
11.8989	-0.0268585	1.2	13	-0.000203412	dWE(1).Potential/dt < 1E-06 V/s
11.9989	-0.0268585	1.3	14	9.15549e-05
12.0989	-0.0268555	1.4	15	3.56012e-05
12.1989	-0.0268494	1.5	16	7.63061e-05
12.2989	-0.0268585	1.6	17	-0.000228893	dWE(1).Potential/dt < 1E-06 V/s
12.3989	-0.0268555	1.7	18	0.00018311
12.4989	-0.0268555	1.8	19	-6.61174e-05	dWE(1).Potential/dt < 1E-06 V/s
12.5989	-0.0268555	1.9	20	1.017e-05
12.6989	-0.0268585	2	21	-5.59288e-05	dWE(1).Potential/dt < 1E-06 V/s
12.7989	-0.0268616	2.1	22	-2.03648e-05	dWE(1).Potential/dt < 1E-06 V/s
12.8989	-0.0268585	2.2	23	8.14345e-05
12.9989	-0.0268646	2.3	24	-0.000157691	dWE(1).Potential/dt < 1E-06 V/s
13.0989	-0.0268646	2.4	25	8.13662e-05
13.1989	-0.0268616	2.5	26	3.55764e-05
13.2989	-0.0268585	2.6	27	2.04083e-05
13.3989	-0.0268677	2.7	28	-0.000193323	dWE(1).Potential/dt < 1E-06 V/s
13.4989	-0.0268677	2.8	29	0.00011698
13.5989	-0.0268646	2.9	30	2.54436e-05
13.6989	-0.0268616	3	31	2.03028e-05
13.7989	-0.0268677	3.1	32	-0.000137301	dWE(1).Potential/dt < 1E-06 V/s
13.8989	-0.0268738	3.2	33	-3.05038e-05	dWE(1).Potential/dt < 1E-06 V/s
13.9989	-0.0268707	3.3	34	0.000106797
14.0989	-0.0268677	3.4	35	-1.24176e-08	dWE(1).Potential/dt < 1E-06 V/s
14.1989	-0.0268677	3.5	36	-2.54436e-05	dWE(1).Potential/dt < 1E-06 V/s
14.2989	-0.0268768	3.6	37	-0.000157679	dWE(1).Potential/dt < 1E-06 V/s
14.3989	-0.0268646	3.7	38	0.000330643
14.4989	-0.0268677	3.8	39	-0.000228943	dWE(1).Potential/dt < 1E-06 V/s
14.5989	-0.0268677	3.9	40	7.62999e-05
14.6989	-0.0268677	4	41	-1.01886e-05	dWE(1).Potential/dt < 1E-06 V/s
14.7989	-0.0268738	4.1	42	-0.00011187	dWE(1).Potential/dt < 1E-06 V/s
14.8989	-0.0268707	4.2	43	0.000127144
14.9989	-0.0268707	4.3	44	-5.59412e-05	dWE(1).Potential/dt < 1E-06 V/s
15.0989	-0.0268646	4.4	45	0.000122077
15.1989	-0.0268738	4.5	46	-0.000239063	dWE(1).Potential/dt < 1E-06 V/s
15.2989	-0.0268829	4.6	47	-4.07049e-05	dWE(1).Potential/dt < 1E-06 V/s
15.3989	-0.0268921	4.7	48	-9.15487e-05	dWE(1).Potential/dt < 1E-06 V/s
15.4989	-0.0268768	4.8	49	0.000356049
15.5989	-0.0268829	4.9	50	-0.000320436	dWE(1).Potential/dt < 1E-06 V/s
15.6989	-0.0268768	5	51	0.000233954
15.7989	-0.0268829	5.1	52	-0.000203444	dWE(1).Potential/dt < 1E-06 V/s
15.8989	-0.0268829	5.2	53	9.153e-05
15.9989	-0.0268799	5.3	54	3.56198e-05
16.0989	-0.026889	5.4	55	-0.000203462	dWE(1).Potential/dt < 1E-06 V/s
16.1989	-0.026889	5.5	56	0.000117011
16.2989	-0.0268829	5.6	57	8.13538e-05
16.3989	-0.026889	5.7	58	-0.000183072	dWE(1).Potential/dt < 1E-06 V/s
16.4989	-0.0268829	5.8	59	0.000203412
16.5989	-0.0268921	5.9	60	-0.000259391	dWE(1).Potential/dt < 1E-06 V/s
16.6989	-0.0268951	6	61	7.12397e-05
16.7989	-0.0268951	6.1	62	5.05396e-06
16.8989	-0.026886	6.2	63	0.00015766
16.9989	-0.0268951	6.3	64	-0.000274634	dWE(1).Potential/dt < 1E-06 V/s
17.0989	-0.0268951	6.4	65	0.000137307
17.1989	-0.0269012	6.5	66	-0.00014243	dWE(1).Potential/dt < 1E-06 V/s
17.2989	-0.026889	6.6	67	0.000295036
17.3989	-0.0268921	6.7	68	-0.00021873	dWE(1).Potential/dt < 1E-06 V/s
17.4989	-0.0269043	6.8	69	-0.000147446	dWE(1).Potential/dt < 1E-06 V/s
17.5989	-0.0268982	6.9	70	0.000244093
17.6989	-0.0269012	7	71	-0.00016783	dWE(1).Potential/dt < 1E-06 V/s
17.7989	-0.0269073	7.1	72	-5.59661e-05	dWE(1).Potential/dt < 1E-06 V/s
17.8989	-0.0269043	7.2	73	0.000117036
17.9989	-0.0269012	7.3	74	-2.48352e-08	dWE(1).Potential/dt < 1E-06 V/s
18.0989	-0.0269073	7.4	75	-0.000137332	dWE(1).Potential/dt < 1E-06 V/s
18.1989	-0.0269073	7.5	76	8.13973e-05
18.2989	-0.0269073	7.6	77	-2.034e-05	dWE(1).Potential/dt < 1E-06 V/s
18.3989	-0.0269165	7.7	78	-0.00016783	dWE(1).Potential/dt < 1E-06 V/s
18.4989	-0.0269165	7.8	79	0.000106797
18.5989	-0.0269043	7.9	80	0.000193298
18.6989	-0.0269104	8	81	-0.000254312	dWE(1).Potential/dt < 1E-06 V/s
18.7989	-0.0269165	8.1	82	-2.48352e-08	dWE(1).Potential/dt < 1E-06 V/s
18.8989	-0.0269165	8.2	83	5.08749e-05
18.9989	-0.0269165	8.3	84	-2.03462e-05	dWE(1).Potential/dt < 1E-06 V/s
19.0989	-0.0269104	8.4	85	0.000111907
19.1989	-0.0269165	8.5	86	-0.000183135	dWE(1).Potential/dt < 1E-06 V/s
19.2989	-0.0269165	8.6	87	9.15673e-05
19.3989	-0.0269165	8.7	88	-2.03462e-05	dWE(1).Potential/dt < 1E-06 V/s
19.4989	-0.0269196	8.8	89	-5.59288e-05	dWE(1).Potential/dt < 1E-06 V/s
19.5989	-0.0269257	8.9	90	-7.62937e-05	dWE(1).Potential/dt < 1E-06 V/s
19.6989	-0.0269165	9	91	0.000228856
19.7989	-0.0269196	9.1	92	-0.000183072	dWE(1).Potential/dt < 1E-06 V/s
19.8989	-0.0269196	9.2	93	6.61299e-05
19.9989	-0.0269226	9.3	94	-6.61361e-05	dWE(1).Potential/dt < 1E-06 V/s
20.0989	-0.0269226	9.4	95	3.56261e-05
20.1989	-0.0269348	9.5	96	-0.000233935	dWE(1).Potential/dt < 1E-06 V/s
20.2989	-0.0269348	9.6	97	0.000142411
20.3989	-0.0269318	9.7	98	1.5255e-05
20.4989	-0.0269226	9.8	99	0.000132235
20.5989	-0.0269318	9.9	100	-0.000264457	dWE(1).Potential/dt < 1E-06 V/s
20.6989	-0.0269318	10	101	0.000137314
20.7989	-0.0269379	10.1	102	-0.000142424	dWE(1).Potential/dt < 1E-06 V/s
20.8989	-0.0269348	10.2	103	0.000127206
20.9989	-0.0269348	10.3	104	-5.59536e-05	dWE(1).Potential/dt < 1E-06 V/s
21.0989	-0.0269409	10.4	105	-0.000101719	dWE(1).Potential/dt < 1E-06 V/s
21.1989	-0.026944	10.5	106	1.52115e-05
21.2989	-0.026944	10.6	107	1.52612e-05
21.3989	-0.0269348	10.7	108	0.000157697
21.4989	-0.0269379	10.8	109	-0.000162782	dWE(1).Potential/dt < 1E-06 V/s
21.5989	-0.026947	10.9	110	-0.000101688	dWE(1).Potential/dt < 1E-06 V/s
21.6989	-0.0269501	11	111	4.06924e-05
21.7989	-0.0269379	11.1	112	0.000228862
21.8989	-0.0269501	11.2	113	-0.000376327	dWE(1).Potential/dt < 1E-06 V/s
21.9989	-0.026947	11.3	114	0.000239026
22.0989	-0.0269501	11.4	115	-0.000132216	dWE(1).Potential/dt < 1E-06 V/s
22.1989	-0.026947	11.5	116	0.000101712
22.2989	-0.0269501	11.6	117	-0.0001017	dWE(1).Potential/dt < 1E-06 V/s
22.3989	-0.0269501	11.7	118	4.57836e-05
22.4989	-0.0269531	11.8	119	-6.61361e-05	dWE(1).Potential/dt < 1E-06 V/s
22.5989	-0.0269623	11.9	120	-0.00013221	dWE(1).Potential/dt < 1E-06 V/s
22.6989	-0.0269531	12	121	0.000264457
22.7989	-0.0269562	12.1	122	-0.000193236	dWE(1).Potential/dt < 1E-06 V/s
22.8989	-0.0269592	12.2	123	1.01079e-05
22.9989	-0.0269623	12.3	124	-3.04914e-05	dWE(1).Potential/dt < 1E-06 V/s
23.0989	-0.0269623	12.4	125	2.5425e-05
23.1989	-0.0269653	12.5	126	-6.60988e-05	dWE(1).Potential/dt < 1E-06 V/s
23.2989	-0.0269653	12.6	127	3.56136e-05
23.3989	-0.0269623	12.7	128	4.57712e-05
23.4989	-0.0269653	12.8	129	-9.153e-05	dWE(1).Potential/dt < 1E-06 V/s
23.5989	-0.0269653	12.9	130	4.57836e-05
23.6989	-0.0269714	13	131	-0.000122065	dWE(1).Potential/dt < 1E-06 V/s
23.7989	-0.0269653	13.1	132	0.000183097
23.8989	-0.0269623	13.2	133	-3.56012e-05	dWE(1).Potential/dt < 1E-06 V/s
23.9989	-0.0269684	13.3	134	-0.000127162	dWE(1).Potential/dt < 1E-06 V/s
24.0989	-0.0269714	13.4	135	2.54685e-05
24.1989	-0.0269714	13.5	136	1.5224e-05
24.2989	-0.0269714	13.6	137	-1.01762e-05	dWE(1).Potential/dt < 1E-06 V/s
24.3989	-0.0269714	13.7	138	-6.20879e-09	dWE(1).Potential/dt < 1E-06 V/s
24.4989	-0.0269745	13.8	139	-5.59847e-05	dWE(1).Potential/dt < 1E-06 V/s
24.5989	-0.0269775	13.9	140	-2.03214e-05	dWE(1).Potential/dt < 1E-06 V/s
24.6989	-0.0269806	14	141	-3.05038e-05	dWE(1).Potential/dt < 1E-06 V/s
24.7989	-0.0269745	14.1	142	0.000137301
24.8989	-0.0269836	14.2	143	-0.000249221	dWE(1).Potential/dt < 1E-06 V/s
24.9989	-0.0269836	14.3	144	0.000127169
25.0989	-0.0269836	14.4	145	-3.051e-05	dWE(1).Potential/dt < 1E-06 V/s
25.1989	-0.0269867	14.5	146	-5.59226e-05	dWE(1).Potential/dt < 1E-06 V/s
25.2989	-0.0269836	14.6	147	9.1499e-05
25.3989	-0.0269867	14.7	148	-0.000101669	dWE(1).Potential/dt < 1E-06 V/s
25.4989	-0.0269867	14.8	149	4.57402e-05
25.5989	-0.0269867	14.9	150	-1.01762e-05	dWE(1).Potential/dt < 1E-06 V/s
25.6989	-0.0269806	15	151	0.000111901
25.7989	-0.0269867	15.1	152	-0.000183091	dWE(1).Potential/dt < 1E-06 V/s
25.8989	-0.0269867	15.2	153	9.15362e-05
25.9989	-0.0269897	15.3	154	-7.63309e-05	dWE(1).Potential/dt < 1E-06 V/s
26.0989	-0.0269836	15.4	155	0.000147515
26.1989	-0.0269897	15.5	156	-0.000193274	dWE(1).Potential/dt < 1E-06 V/s
26.2989	-0.0269958	15.6	157	-2.03276e-05	dWE(1).Potential/dt < 1E-06 V/s
26.3989	-0.0269989	15.7	158	-5.10984e-06	dWE(1).Potential/dt < 1E-06 V/s
26.4989	-0.0269958	15.8	159	7.12645e-05
26.5989	-0.027002	15.9	160	-0.000157691	dWE(1).Potential/dt < 1E-06 V/s
26.6989	-0.027002	16	161	8.13662e-05
26.7989	-0.0269928	16.1	162	0.000147484
26.8989	-0.027005	16.2	163	-0.000330612	dWE(1).Potential/dt < 1E-06 V/s
26.9989	-0.027002	16.3	164	0.0002289
27.0989	-0.0270081	16.4	165	-0.000188226	dWE(1).Potential/dt < 1E-06 V/s
27.1989	-0.027002	16.5	166	0.000193305
27.2989	-0.027005	16.6	167	-0.000147552	dWE(1).Potential/dt < 1E-06 V/s
27.3989	-0.027005	16.7	168	5.59536e-05
27.4989	-0.0270111	16.8	169	-0.000122046	dWE(1).Potential/dt < 1E-06 V/s
27.5989	-0.027005	16.9	170	0.000183072
27.6989	-0.027005	17	171	-9.15549e-05	dWE(1).Potential/dt < 1E-06 V/s
27.7989	-0.027005	17.1	172	2.03276e-05
27.8989	-0.0270081	17.2	173	-5.59412e-05	dWE(1).Potential/dt < 1E-06 V/s
27.9989	-0.027005	17.3	174	9.153e-05
28.0989	-0.027005	17.4	175	-4.57836e-05	dWE(1).Potential/dt < 1E-06 V/s
28.1989	-0.0270111	17.5	176	-0.0001017	dWE(1).Potential/dt < 1E-06 V/s
28.2989	-0.027002	17.6	177	0.000239051
28.3989	-0.027005	17.7	178	-0.000183147	dWE(1).Potential/dt < 1E-06 V/s
28.4989	-0.0270081	17.8	179	1.01948e-05
28.5989	-0.0270081	17.9	180	2.5425e-05
28.6989	-0.0270081	18	181	-1.017e-05	dWE(1).Potential/dt < 1E-06 V/s
28.7989	-0.0270081	18.1	182	0	dWE(1).Potential/dt < 1E-06 V/s
28.8989	-0.0270142	18.2	183	-0.000111907	dWE(1).Potential/dt < 1E-06 V/s
28.9989	-0.0270081	18.3	184	0.000183135
29.0989	-0.0270081	18.4	185	-9.15673e-05	dWE(1).Potential/dt < 1E-06 V/s
29.1989	-0.0270111	18.5	186	-3.55826e-05	dWE(1).Potential/dt < 1E-06 V/s
29.2989	-0.0270111	18.6	187	3.56136e-05
29.3989	-0.0270172	18.7	188	-0.000122065	dWE(1).Potential/dt < 1E-06 V/s
29.4989	-0.027005	18.8	189	0.000294955
29.5989	-0.0270142	18.9	190	-0.000330593	dWE(1).Potential/dt < 1E-06 V/s
29.6989	-0.0270142	19	191	0.000147515
29.7989	-0.0270142	19.1	192	-3.051e-05	dWE(1).Potential/dt < 1E-06 V/s
29.8989	-0.0270172	19.2	193	-5.59226e-05	dWE(1).Potential/dt < 1E-06 V/s
29.9989	-0.0270172	19.3	194	3.55702e-05
30.0989	-0.0270142	19.4	195	4.57526e-05
30.1989	-0.0270111	19.5	196	2.04083e-05
30.2989	-0.0270142	19.6	197	-8.14159e-05	dWE(1).Potential/dt < 1E-06 V/s
30.3989	-0.0270203	19.7	198	-6.6105e-05	dWE(1).Potential/dt < 1E-06 V/s
30.4989	-0.0270203	19.8	199	6.10076e-05
30.5989	-0.0270203	19.9	200	-2.03586e-05	dWE(1).Potential/dt < 1E-06 V/s
30.6989	-0.0270203	20	201	-1.24176e-08	dWE(1).Potential/dt < 1E-06 V/s
30.7989	-0.0270233	20.1	202	-5.59412e-05	dWE(1).Potential/dt < 1E-06 V/s
30.8989	-0.0270233	20.2	203	3.56012e-05
30.9989	-0.0270264	20.3	204	-6.60988e-05	dWE(1).Potential/dt < 1E-06 V/s
31.0989	-0.0270203	20.4	205	0.000147471
31.1989	-0.0270264	20.5	206	-0.000193242	dWE(1).Potential/dt < 1E-06 V/s
31.2989	-0.0270233	20.6	207	0.000147484
31.3989	-0.0270294	20.7	208	-0.000167849	dWE(1).Potential/dt < 1E-06 V/s
31.4989	-0.0270172	20.8	209	0.000305212
31.5989	-0.0270264	20.9	210	-0.000330631	dWE(1).Potential/dt < 1E-06 V/s
31.6989	-0.0270325	21	211	3.56198e-05
31.7989	-0.0270325	21.1	212	4.06738e-05
31.8989	-0.0270264	21.2	213	9.15549e-05
31.9989	-0.0270294	21.3	214	-0.000127162	dWE(1).Potential/dt < 1E-06 V/s
32.0989	-0.0270264	21.4	215	0.000111951
32.1989	-0.0270386	21.5	216	-0.000269598	dWE(1).Potential/dt < 1E-06 V/s
32.2989	-0.0270325	21.6	217	0.000264501
32.3989	-0.0270386	21.7	218	-0.000223827	dWE(1).Potential/dt < 1E-06 V/s
32.4989	-0.0270294	21.8	219	0.000259403
32.5989	-0.0270355	21.9	220	-0.000239045	dWE(1).Potential/dt < 1E-06 V/s
32.6989	-0.0270325	22	221	0.000157679
32.7989	-0.0270355	22.1	222	-0.000111951	dWE(1).Potential/dt < 1E-06 V/s
32.8989	-0.0270355	22.2	223	4.57836e-05
32.9989	-0.0270355	22.3	224	-1.01886e-05	dWE(1).Potential/dt < 1E-06 V/s
33.0989	-0.0270447	22.4	225	-0.000167849	dWE(1).Potential/dt < 1E-06 V/s
33.1989	-0.0270386	22.5	226	0.000218736
33.2989	-0.0270386	22.6	227	-0.000101737	dWE(1).Potential/dt < 1E-06 V/s
33.3989	-0.0270386	22.7	228	2.03462e-05
33.4989	-0.0270355	22.8	229	5.59288e-05
33.5989	-0.0270447	22.9	230	-0.00020345	dWE(1).Potential/dt < 1E-06 V/s
33.6989	-0.0270447	23	231	0.000116999
33.7989	-0.0270447	23.1	232	-3.051e-05	dWE(1).Potential/dt < 1E-06 V/s
33.8989	-0.0270477	23.2	233	-5.59226e-05	dWE(1).Potential/dt < 1E-06 V/s
33.9989	-0.0270477	23.3	234	3.55702e-05
34.0989	-0.0270508	23.4	235	-6.61547e-05	dWE(1).Potential/dt < 1E-06 V/s
34.1989	-0.0270538	23.5	236	-2.03214e-05	dWE(1).Potential/dt < 1E-06 V/s
34.2989	-0.0270538	23.6	237	2.5425e-05
34.3989	-0.0270538	23.7	238	-1.017e-05	dWE(1).Potential/dt < 1E-06 V/s
34.4989	-0.0270569	23.8	239	-5.59288e-05	dWE(1).Potential/dt < 1E-06 V/s
34.5989	-0.0270569	23.9	240	3.56136e-05
34.6989	-0.0270569	24	241	-1.01576e-05	dWE(1).Potential/dt < 1E-06 V/s
34.7989	-0.0270599	24.1	242	-5.59661e-05	dWE(1).Potential/dt < 1E-06 V/s
34.8989	-0.027063	24.2	243	-2.03028e-05	dWE(1).Potential/dt < 1E-06 V/s
34.9989	-0.027066	24.3	244	-3.05845e-05	dWE(1).Potential/dt < 1E-06 V/s
35.0989	-0.027063	24.4	245	8.14159e-05
35.1989	-0.027063	24.5	246	-4.58023e-05	dWE(1).Potential/dt < 1E-06 V/s
35.2989	-0.0270721	24.6	247	-0.000157666	dWE(1).Potential/dt < 1E-06 V/s
35.3989	-0.0270691	24.7	248	0.000162764
35.4989	-0.0270782	24.8	249	-0.000233954	dWE(1).Potential/dt < 1E-06 V/s
35.5989	-0.0270721	24.9	250	0.000228869
35.6989	-0.0270752	25	251	-0.000157679	dWE(1).Potential/dt < 1E-06 V/s
35.7989	-0.0270721	25.1	252	0.000111951
35.8989	-0.0270721	25.2	253	-4.57836e-05	dWE(1).Potential/dt < 1E-06 V/s
35.9989	-0.0270844	25.3	254	-0.000213626	dWE(1).Potential/dt < 1E-06 V/s
36.0989	-0.0270782	25.4	255	0.000254325
36.1989	-0.0270752	25.5	256	-5.59909e-05	dWE(1).Potential/dt < 1E-06 V/s
36.2989	-0.0270721	25.6	257	4.07545e-05
36.3989	-0.0270813	25.7	258	-0.000193323	dWE(1).Potential/dt < 1E-06 V/s
36.4989	-0.0270844	25.8	259	6.10511e-05
36.5989	-0.0270782	25.9	260	0.000116986
36.6989	-0.0270782	26	261	-8.13973e-05	dWE(1).Potential/dt < 1E-06 V/s
36.7989	-0.0270752	26.1	262	7.62688e-05
36.8989	-0.0270782	26.2	263	-9.1499e-05	dWE(1).Potential/dt < 1E-06 V/s
36.9989	-0.0270813	26.3	264	-1.02383e-05	dWE(1).Potential/dt < 1E-06 V/s
37.0989	-0.0270874	26.4	265	-8.64202e-05	dWE(1).Potential/dt < 1E-06 V/s
37.1989	-0.0270905	26.5	266	5.06017e-06
37.2989	-0.0270905	26.6	267	1.52861e-05
37.3989	-0.0270844	26.7	268	0.000101737
37.4989	-0.0270935	26.8	269	-0.000239057	dWE(1).Potential/dt < 1E-06 V/s
37.5989	-0.0270874	26.9	270	0.000239045
37.6989	-0.0270874	27	271	-0.0001017	dWE(1).Potential/dt < 1E-06 V/s
37.7989	-0.0270905	27.1	272	-3.56198e-05	dWE(1).Potential/dt < 1E-06 V/s
37.8989	-0.0270905	27.2	273	3.56261e-05
37.9989	-0.0270905	27.3	274	-1.017e-05	dWE(1).Potential/dt < 1E-06 V/s
38.0989	-0.0270966	27.4	275	-0.000111901	dWE(1).Potential/dt < 1E-06 V/s
38.1989	-0.0270844	27.5	276	0.000294998
38.2989	-0.0270935	27.6	277	-0.0003306	dWE(1).Potential/dt < 1E-06 V/s
38.3989	-0.0271027	27.7	278	-2.03524e-05	dWE(1).Potential/dt < 1E-06 V/s
38.4989	-0.0270966	27.8	279	0.000188176
38.5989	-0.0271027	27.9	280	-0.000213589	dWE(1).Potential/dt < 1E-06 V/s
38.6989	-0.0271027	28	281	9.15549e-05
38.7989	-0.0271088	28.1	282	-0.000132235	dWE(1).Potential/dt < 1E-06 V/s
38.8989	-0.0271027	28.2	283	0.000183097
38.9989	-0.0271027	28.3	284	-9.153e-05	dWE(1).Potential/dt < 1E-06 V/s
39.0989	-0.0271027	28.4	285	2.03586e-05
39.1989	-0.0271027	28.5	286	1.24176e-08	dWE(1).Potential/dt < 1E-06 V/s
39.2989	-0.0271088	28.6	287	-0.000111895	dWE(1).Potential/dt < 1E-06 V/s
39.3989	-0.0271088	28.7	288	7.119e-05
39.4989	-0.0271088	28.8	289	-2.03524e-05	dWE(1).Potential/dt < 1E-06 V/s
39.5989	-0.0271057	28.9	290	5.59226e-05
39.6989	-0.0271088	29	291	-9.1499e-05	dWE(1).Potential/dt < 1E-06 V/s
39.7989	-0.0271118	29.1	292	-1.02383e-05	dWE(1).Potential/dt < 1E-06 V/s
39.8989	-0.0271088	29.2	293	8.14159e-05
39.9989	-0.0271088	29.3	294	-4.58023e-05	dWE(1).Potential/dt < 1E-06 V/s
40.0989	-0.0271057	29.4	295	6.60988e-05
40.1989	-0.0271088	29.5	296	-9.1499e-05	dWE(1).Potential/dt < 1E-06 V/s
40.2989	-0.0271057	29.6	297	0.000101669
40.3989	-0.0271088	29.7	298	-0.000101669	dWE(1).Potential/dt < 1E-06 V/s
40.4989	-0.0271088	29.8	299	4.57402e-05
40.5989	-0.0271149	29.9	300	-0.000122084	dWE(1).Potential/dt < 1E-06 V/s
40.6989	-0.0271118	30	301	0.00012715
40.7989	-0.0271088	30.1	302	1.86264e-08	dWE(1).Potential/dt < 1E-06 V/s
40.8989	-0.0271118	30.2	303	-8.14345e-05	dWE(1).Potential/dt < 1E-06 V/s
40.9989	-0.0271118	30.3	304	4.57836e-05
41.0989	-0.0271118	30.4	305	-1.01886e-05	dWE(1).Potential/dt < 1E-06 V/s
[...]
115.999	-0.0275299	105.3	1054	0.00024924
116.099	-0.0275299	105.4	1055	-0.000152575	dWE(1).Potential/dt < 1E-06 V/s
116.199	-0.0275269	105.5	1056	9.66337e-05
116.299	-0.0275391	105.6	1057	-0.000259416	dWE(1).Potential/dt < 1E-06 V/s
116.399	-0.027533	105.7	1058	0.000264482
116.499	-0.027536	105.8	1059	-0.000167811	dWE(1).Potential/dt < 1E-06 V/s
116.599	-0.027536	105.9	1060	5.59164e-05
116.699	-0.0275299	106	1061	0.000101731
116.799	-0.027536	106.1	1062	-0.000183091	dWE(1).Potential/dt < 1E-06 V/s
116.899	-0.0275452	106.2	1063	-7.62999e-05	dWE(1).Potential/dt < 1E-06 V/s
116.999	-0.0275421	106.3	1064	0.000142417
117.099	-0.0275391	106.4	1065	-1.01886e-05	dWE(1).Potential/dt < 1E-06 V/s
117.199	-0.0275391	106.5	1066	-2.54436e-05	dWE(1).Potential/dt < 1E-06 V/s
117.299	-0.027536	106.6	1067	6.61361e-05
117.399	-0.0275391	106.7	1068	-9.16045e-05	dWE(1).Potential/dt < 1E-06 V/s
117.499	-0.0275452	106.8	1069	-6.6074e-05	dWE(1).Potential/dt < 1E-06 V/s
117.599	-0.0275391	106.9	1070	0.000172896
117.699	-0.027533	107	1071	2.03524e-05
117.799	-0.0275421	107.1	1072	-0.000218686	dWE(1).Potential/dt < 1E-06 V/s
117.899	-0.0275421	107.2	1073	0.000127144
117.999	-0.0275421	107.3	1074	-3.05162e-05	dWE(1).Potential/dt < 1E-06 V/s
118.099	-0.0275421	107.4	1075	0	dWE(1).Potential/dt < 1E-06 V/s
118.199	-0.0275421	107.5	1076	0	dWE(1).Potential/dt < 1E-06 V/s
118.299	-0.0275391	107.6	1077	5.59288e-05
118.399	-0.0275482	107.7	1078	-0.00020345	dWE(1).Potential/dt < 1E-06 V/s
118.499	-0.0275482	107.8	1079	0.000116999
118.599	-0.0275482	107.9	1080	-3.051e-05	dWE(1).Potential/dt < 1E-06 V/s
118.699	-0.0275421	108	1081	0.000111914
118.799	-0.0275482	108.1	1082	-0.000183128	dWE(1).Potential/dt < 1E-06 V/s
118.899	-0.0275482	108.2	1083	9.15735e-05
118.999	-0.0275421	108.3	1084	9.15673e-05
119.099	-0.0275452	108.4	1085	-0.00012715	dWE(1).Potential/dt < 1E-06 V/s
119.199	-0.0275543	108.5	1086	-0.000111926	dWE(1).Potential/dt < 1E-06 V/s
119.299	-0.0275482	108.6	1087	0.000208541
119.399	-0.0275482	108.7	1088	-0.000101712	dWE(1).Potential/dt < 1E-06 V/s
119.499	-0.0275482	108.8	1089	2.03524e-05
119.599	-0.0275513	108.9	1090	-5.59226e-05	dWE(1).Potential/dt < 1E-06 V/s
119.699	-0.0275513	109	1091	3.55702e-05
119.799	-0.0275543	109.1	1092	-6.61547e-05	dWE(1).Potential/dt < 1E-06 V/s
119.899	-0.0275482	109.2	1093	0.000147515
119.999	-0.0275543	109.3	1094	-0.000193274	dWE(1).Potential/dt < 1E-06 V/s
120.099	-0.0275452	109.4	1095	0.000259416
120.199	-0.0275543	109.5	1096	-0.000295036	dWE(1).Potential/dt < 1E-06 V/s
120.299	-0.0275513	109.6	1097	0.000193305
120.399	-0.0275543	109.7	1098	-0.000122127	dWE(1).Potential/dt < 1E-06 V/s
120.499	-0.0275482	109.8	1099	0.000157691
120.599	-0.0275513	109.9	1100	-0.000137295	dWE(1).Potential/dt < 1E-06 V/s
120.699	-0.0275543	110	1101	-6.20879e-08	dWE(1).Potential/dt < 1E-06 V/s
120.799	-0.0275604	110.1	1102	-8.64202e-05	dWE(1).Potential/dt < 1E-06 V/s
120.899	-0.0275543	110.2	1103	0.000172896
120.999	-0.0275574	110.3	1104	-0.000147484	dWE(1).Potential/dt < 1E-06 V/s
121.099	-0.0275574	110.4	1105	5.59412e-05
121.199	-0.0275513	110.5	1106	0.000101737
121.299	-0.0275574	110.6	1107	-0.000183135	dWE(1).Potential/dt < 1E-06 V/s
121.399	-0.0275574	110.7	1108	9.15673e-05
121.499	-0.0275574	110.8	1109	-2.03462e-05	dWE(1).Potential/dt < 1E-06 V/s
121.599	-0.0275543	110.9	1110	5.59288e-05
121.699	-0.0275543	111	1111	-3.56136e-05	dWE(1).Potential/dt < 1E-06 V/s
121.799	-0.0275543	111.1	1112	1.01576e-05
121.899	-0.0275543	111.2	1113	-1.24176e-08	dWE(1).Potential/dt < 1E-06 V/s
121.999	-0.0275635	111.3	1114	-0.000167849	dWE(1).Potential/dt < 1E-06 V/s
122.099	-0.0275635	111.4	1115	0.000106828
122.199	-0.0275543	111.5	1116	0.000137326
122.299	-0.0275604	111.6	1117	-0.000218692	dWE(1).Potential/dt < 1E-06 V/s
122.399	-0.0275635	111.7	1118	4.57526e-05
122.499	-0.0275574	111.8	1119	0.000127193
122.599	-0.0275604	111.9	1120	-0.000137326	dWE(1).Potential/dt < 1E-06 V/s
122.699	-0.0275635	112	1121	-1.86264e-08	dWE(1).Potential/dt < 1E-06 V/s
122.799	-0.0275574	112.1	1122	0.000137363
122.899	-0.0275543	112.2	1123	-2.54685e-05	dWE(1).Potential/dt < 1E-06 V/s
122.999	-0.0275665	112.3	1124	-0.000239032	dWE(1).Potential/dt < 1E-06 V/s
123.099	-0.0275635	112.4	1125	0.000208491
123.199	-0.0275604	112.5	1126	-2.02779e-05	dWE(1).Potential/dt < 1E-06 V/s
123.299	-0.0275635	112.6	1127	-8.14159e-05	dWE(1).Potential/dt < 1E-06 V/s
123.399	-0.0275696	112.7	1128	-6.6105e-05	dWE(1).Potential/dt < 1E-06 V/s
123.499	-0.0275665	112.8	1129	0.000116986
123.599	-0.0275696	112.9	1130	-0.000111951	dWE(1).Potential/dt < 1E-06 V/s
123.699	-0.0275635	113	1131	0.000157691
123.799	-0.0275635	113.1	1132	-8.13662e-05	dWE(1).Potential/dt < 1E-06 V/s
123.899	-0.0275635	113.2	1133	2.03524e-05
123.999	-0.0275696	113.3	1134	-0.000111901	dWE(1).Potential/dt < 1E-06 V/s
124.099	-0.0275665	113.4	1135	0.000127162
124.199	-0.0275726	113.5	1136	-0.00016788	dWE(1).Potential/dt < 1E-06 V/s
124.299	-0.0275696	113.6	1137	0.000137326
124.399	-0.0275696	113.7	1138	-5.59599e-05	dWE(1).Potential/dt < 1E-06 V/s
124.499	-0.0275696	113.8	1139	1.01576e-05
124.599	-0.0275757	113.9	1140	-0.00011187	dWE(1).Potential/dt < 1E-06 V/s
124.699	-0.0275757	114	1141	7.12149e-05
124.799	-0.0275665	114.1	1142	0.000147509
124.899	-0.0275604	114.2	1143	5.07879e-06
124.999	-0.0275696	114.3	1144	-0.000208553	dWE(1).Potential/dt < 1E-06 V/s
125.099	-0.0275665	114.4	1145	0.000183128
125.199	-0.0275726	114.5	1146	-0.000178056	dWE(1).Potential/dt < 1E-06 V/s
125.299	-0.0275726	114.6	1147	8.13973e-05
125.399	-0.0275787	114.7	1148	-0.000132254	dWE(1).Potential/dt < 1E-06 V/s
125.499	-0.0275757	114.8	1149	0.000127206
125.599	-0.0275665	114.9	1150	0.000111882
125.699	-0.0275787	115	1151	-0.000320467	dWE(1).Potential/dt < 1E-06 V/s
125.799	-0.0275757	115.1	1152	0.000228943
125.899	-0.0275757	115.2	1153	-7.62999e-05	dWE(1).Potential/dt < 1E-06 V/s
125.999	-0.0275787	115.3	1154	-4.57899e-05	dWE(1).Potential/dt < 1E-06 V/s
126.099	-0.0275848	115.4	1155	-7.62812e-05	dWE(1).Potential/dt < 1E-06 V/s
126.199	-0.0275787	115.5	1156	0.000172915
126.299	-0.0275818	115.6	1157	-0.000147465	dWE(1).Potential/dt < 1E-06 V/s
126.399	-0.0275818	115.7	1158	5.59164e-05
126.499	-0.0275818	115.8	1159	-1.01762e-05	dWE(1).Potential/dt < 1E-06 V/s
126.599	-0.0275848	115.9	1160	-5.59847e-05	dWE(1).Potential/dt < 1E-06 V/s
126.699	-0.0275818	116	1161	9.15859e-05
126.799	-0.0275848	116.1	1162	-0.000101781	dWE(1).Potential/dt < 1E-06 V/s
126.899	-0.0275787	116.2	1163	0.000157691
126.999	-0.0275787	116.3	1164	-8.13662e-05	dWE(1).Potential/dt < 1E-06 V/s
127.099	-0.0275879	116.4	1165	-0.000147484	dWE(1).Potential/dt < 1E-06 V/s
127.199	-0.0275787	116.5	1166	0.000274634
127.299	-0.0275818	116.6	1167	-0.000193236	dWE(1).Potential/dt < 1E-06 V/s
127.399	-0.0275848	116.7	1168	1.01079e-05
127.499	-0.0275818	116.8	1169	8.14159e-05
127.599	-0.0275879	116.9	1170	-0.00015771	dWE(1).Potential/dt < 1E-06 V/s
127.699	-0.0275818	117	1171	0.000193305
127.799	-0.0275848	117.1	1172	-0.000147552	dWE(1).Potential/dt < 1E-06 V/s
127.899	-0.0275818	117.2	1173	0.000111932
127.999	-0.0275879	117.3	1174	-0.00015771	dWE(1).Potential/dt < 1E-06 V/s
128.099	-0.027597	117.4	1175	-8.64388e-05	dWE(1).Potential/dt < 1E-06 V/s
128.199	-0.0275848	117.5	1176	0.00031021
128.299	-0.0275909	117.6	1177	-0.000284785	dWE(1).Potential/dt < 1E-06 V/s
128.399	-0.0275848	117.7	1178	0.000223759
128.499	-0.027594	117.8	1179	-0.000259391	dWE(1).Potential/dt < 1E-06 V/s
128.599	-0.0275909	117.9	1180	0.000183147
128.699	-0.027594	118	1181	-0.000122102	dWE(1).Potential/dt < 1E-06 V/s
128.799	-0.0275879	118.1	1182	0.00015771
128.899	-0.0275879	118.2	1183	-8.13973e-05	dWE(1).Potential/dt < 1E-06 V/s
128.999	-0.027594	118.3	1184	-9.15611e-05	dWE(1).Potential/dt < 1E-06 V/s
129.099	-0.0275909	118.4	1185	0.000127206
129.199	-0.027597	118.5	1186	-0.000167861	dWE(1).Potential/dt < 1E-06 V/s
129.299	-0.027594	118.6	1187	0.000137295
129.399	-0.0276001	118.7	1188	-0.000167824	dWE(1).Potential/dt < 1E-06 V/s
129.499	-0.027597	118.8	1189	0.000137332
129.599	-0.0275909	118.9	1190	5.5935e-05
129.699	-0.0276001	119	1191	-0.000228893	dWE(1).Potential/dt < 1E-06 V/s
129.799	-0.027597	119.1	1192	0.000183128
129.899	-0.0276031	119.2	1193	-0.000178056	dWE(1).Potential/dt < 1E-06 V/s
129.999	-0.027597	119.3	1194	0.000193305
130.099	-0.0275909	119.4	1195	2.03338e-05
130.199	-0.027597	119.5	1196	-0.000162745	dWE(1).Potential/dt < 1E-06 V/s
130.299	-0.027594	119.6	1197	0.000147465
130.399	-0.027594	119.7	1198	-5.59164e-05	dWE(1).Potential/dt < 1E-06 V/s
130.499	-0.0276001	119.8	1199	-0.000101731	dWE(1).Potential/dt < 1E-06 V/s
130.599	-0.0276031	119.9	1200	1.5255e-05