File: data/20200212/OCP_p32_1.txt
Time (s)	WE(1).Potential (V)	Corrected time (s)	Index	dWE(1).Potential/dt (V/s)	Cutoffs	OCP value (V)
1.56774	0.0595703	0	1	0	dWE(1).Potential/dt < 1E-06 V/s	0.0595651
1.66774	0.0595703	0.1	2	0	dWE(1).Potential/dt < 1E-06 V/s
1.76774	0.0595398	0.2	3	-0.000457764	dWE(1).Potential/dt < 1E-06 V/s
1.86774	0.0595703	0.3	4	0.000915527
1.96774	0.0595703	0.4	5	-0.000457764	dWE(1).Potential/dt < 1E-06 V/s
2.06774	0.0595703	0.5	6	0.000101725
2.16774	0.0595703	0.6	7	0	dWE(1).Potential/dt < 1E-06 V/s
2.26774	0.0595703	0.7	8	0	dWE(1).Potential/dt < 1E-06 V/s
2.36774	0.0595398	0.8	9	-0.000559489	dWE(1).Potential/dt < 1E-06 V/s
2.46774	0.0595703	0.9	10	0.000915527
2.56774	0.0595398	1	11	-0.00101725	dWE(1).Potential/dt < 1E-06 V/s
2.66774	0.0595398	1.1	12	0.000457764
2.76774	0.0595703	1.2	13	0.000457764
2.86774	0.0595703	1.3	14	-0.000356038	dWE(1).Potential/dt < 1E-06 V/s
2.96774	0.0595703	1.4	15	0.000101725
3.06774	0.0595703	1.5	16	0	dWE(1).Potential/dt < 1E-06 V/s
3.16774	0.0595703	1.6	17	0	dWE(1).Potential/dt < 1E-06 V/s
3.26774	0.0595398	1.7	18	-0.000559489	dWE(1).Potential/dt < 1E-06 V/s
3.36774	0.0595703	1.8	19	0.000915527
3.46774	0.0595703	1.9	20	-0.000457764	dWE(1).Potential/dt < 1E-06 V/s
3.56774	0.0595703	2	21	0.000101725
3.66774	0.0595703	2.1	22	0	dWE(1).Potential/dt < 1E-06 V/s
3.76774	0.0595703	2.2	23	0	dWE(1).Potential/dt < 1E-06 V/s
3.86774	0.0595703	2.3	24	0	dWE(1).Potential/dt < 1E-06 V/s
3.96774	0.0595703	2.4	25	0	dWE(1).Potential/dt < 1E-06 V/s
4.06774	0.0595703	2.5	26	0	dWE(1).Potential/dt < 1E-06 V/s , dWE(1).Potential/dt > -1E-06 V/s
4.16774	0.0595703	2.6	27	0	dWE(1).Potential/dt < 1E-06 V/s , dWE(1).Potential/dt > -1E-06 V/s
4.26774	0.0595703	2.7	28	0	dWE(1).Potential/dt < 1E-06 V/s , dWE(1).Potential/dt > -1E-06 V/s
4.36774	0.0595703	2.8	29	0	dWE(1).Potential/dt < 1E-06 V/s , dWE(1).Potential/dt > -1E-06 V/s
4.46774	0.0595703	2.9	30	0	dWE(1).Potential/dt < 1E-06 V/s , dWE(1).Potential/dt > -1E-06 V/s