File: data/20200212/OCP_p30_1.txt
Time (s)	WE(1).Potential (V)	Corrected time (s)	Index	dWE(1).Potential/dt (V/s)	OCP value (V)
4.86381	0.00805664	0	1	0	0.00868297
5.36381	0.00803833	0.5	6	-9.15646e-05
5.86381	0.00805359	1	11	2.03463e-05
6.36381	0.0080658	1.5	16	0.000325498
6.86381	0.00805969	2	21	-0.000330601
7.36381	0.00806274	2.5	26	-0.000356029
7.86381	0.00806885	3	31	-3.55952e-05
8.36381	0.00806274	3.5	36	-0.000366215
8.86381	0.00806274	4	41	-4.57652e-05
9.36381	0.00808411	4.5	46	0.000340771
9.86381	0.00807495	5	51	-0.000269575
10.3638	0.00807495	5.5	56	0.000259411
10.8638	0.00809326	6	61	-0.000284805
11.3638	0.00809021	6.5	66	0.000320447
11.8638	0.00809326	7	71	9.66403e-05
12.3638	0.00809326	7.5	76	-0.000157651
12.8638	0.00810242	8	81	0.000157698
13.3638	0.00810852	8.5	86	0.000137345
13.8638	0.00810242	9	91	0.000310264
14.3638	0.00811462	9.5	96	0.000203432
14.8638	0.00811768	10	101	0.000137314
15.3638	0.00812683	10.5	106	0.000167824
15.8638	0.00812683	11	111	-5.08813e-06
16.3638	0.00813904	11.5	116	0.000284833
16.8638	0.00813904	12	121	0.000625604
17.3638	0.00812073	12.5	126	-0.000259377
17.8638	0.00812988	13	131	-9.66559e-05
18.3638	0.00813904	13.5	136	3.56076e-05
18.8638	0.0081543	14	141	5.08689e-05
19.3638	0.00813904	14.5	146	-7.11904e-05
19.8638	0.00815735	15	151	0.000300082
20.3638	0.00814819	15.5	156	0.000391634
20.8638	0.0081604	16	161	0.000279748
21.3638	0.0081604	16.5	166	3.10441e-09
21.8638	0.00815735	17	171	-0.000320456
22.3638	0.00817261	17.5	176	0.000269565
22.8638	0.00815735	18	181	9.15491e-05
23.3638	0.00817261	18.5	186	0.000376385
23.8638	0.0081665	19	191	-0.00018818
24.3638	0.00817566	19.5	196	-0.000233961
24.8638	0.00818176	20	201	-0.000208539
25.3638	0.00819397	20.5	206	-4.06926e-05
25.8638	0.00818481	21	211	0.000101735
26.3638	0.00818787	21.5	216	-0.000101735
26.8638	0.00819092	22	221	0.000116984
27.3638	0.00820313	22.5	226	-9.66434e-05
27.8638	0.00819397	23	231	0.000111877
28.3638	0.00820007	23.5	236	0.000101722
28.8638	0.00820618	24	241	-0.000366218
29.3638	0.00822144	24.5	246	5.09434e-06
29.8638	0.00821533	25	251	2.03774e-05
30.3638	0.00821533	25.5	256	0.000137345
30.8638	0.00820618	26	261	0.000279739
31.3638	0.00822449	26.5	266	4.07019e-05
31.8638	0.00821533	27	271	-7.62692e-05
32.3638	0.00822144	27.5	276	0.000295
32.8638	0.00821228	28	281	-0.000233964
33.3638	0.00822754	28.5	286	0.000157682
33.8638	0.00823669	29	291	5.59601e-05
34.3638	0.00823059	29.5	296	-9.66279e-05
34.8638	0.0082489	30	301	0.000167837
35.3638	0.0082428	30.5	306	-0.000244137
35.8638	0.0082489	31	311	1.01638e-05
36.3638	0.00823669	31.5	316	8.64548e-05
36.8638	0.008255	32	321	-0.000274666
37.3638	0.00825195	32.5	326	-0.000350966
37.8638	0.008255	33	331	-0.00073243
38.3638	0.00826416	33.5	336	1.01638e-05
38.8638	0.008255	34	341	-0.000366209
39.3638	0.00827026	34.5	346	-4.57714e-05
39.8638	0.00827332	35	351	0.00031534
40.3638	0.00829163	35.5	356	0.00012716
40.8638	0.00827026	36	361	-0.000330611
41.3638	0.00827942	36.5	366	0.000411986
41.8638	0.00827942	37	371	0.000600176
42.3638	0.00829468	37.5	376	0.00044756
42.8638	0.00828857	38	381	-0.000198366
43.3638	0.00830383	38.5	386	-0.000254285
43.8638	0.00827942	39	391	-0.000203463
44.3638	0.00828552	39.5	396	-0.000122084
44.8638	0.00830383	40	401	0.000340793
45.3638	0.00829468	40.5	406	-0.000310261
45.8638	0.00829468	41	411	-0.000417078
46.3638	0.00830688	41.5	416	-0.000259392
46.8638	0.00830994	42	421	0.000274647
47.3638	0.00830383	42.5	426	0.000233961
47.8638	0.00831604	43	431	3.05288e-05
48.3638	0.0083313	43.5	436	0.000401829
48.8638	0.00832825	44	441	-0.000162752
49.3638	0.00832825	44.5	446	0.000157661
49.8638	0.0083252	45	451	0.000228851
50.3638	0.0083252	45.5	456	3.05226e-05
50.8638	0.0083313	46	461	-0.000111914
51.3638	0.0083374	46.5	466	6.6124e-05
51.8638	0.00833435	47	471	-0.00010681
52.3638	0.0083374	47.5	476	-0.000422157
52.8638	0.00833435	48	481	-0.000284805
53.3638	0.00834961	48.5	486	-1.52551e-05
53.8638	0.00834961	49	491	0.000101738
54.3638	0.00834961	49.5	496	0.000162789
54.8638	0.00836182	50	501	-8.64517e-05
55.3638	0.00835876	50.5	506	-0.000284848
55.8638	0.00835266	51	511	-0.000228876
56.3638	0.00835876	51.5	516	7.11997e-05
56.8638	0.00836182	52	521	-0.00030517
57.3638	0.00836792	52.5	526	0.000198372
57.8638	0.00835571	53	531	-0.00019329
58.3638	0.00837097	53.5	536	0.000183092
58.8638	0.00836792	54	541	3.562e-05
59.3638	0.00836487	54.5	546	3.05039e-05
59.8638	0.00838013	55	551	-2.54034e-05
60.3638	0.00837402	55.5	556	-0.000310261
60.8638	0.00837097	56	561	-0.000167865
61.3638	0.00839233	56.5	566	-0.000223803
61.8638	0.00839233	57	571	2.03587e-05
62.3638	0.00838623	57.5	576	7.11904e-05
62.8638	0.00839539	58	581	-5.59477e-05
63.3638	0.00839233	58.5	586	-7.12214e-05
63.8638	0.00840454	59	591	0.000244125
64.3638	0.0084137	59.5	596	0.000340777
64.8638	0.00840759	60	601	0.000127154
65.3638	0.00839844	60.5	606	-0.000396731
65.8638	0.00840149	61	611	-0.000111908
66.3638	0.00841675	61.5	616	3.55766e-05
66.8638	0.0084137	62	621	0.000111895
67.3638	0.0084137	62.5	626	-0.000203435
67.8638	0.0084137	63	631	-1.01638e-05
68.3638	0.0084259	63.5	636	0.000645963
68.8638	0.00842896	64	641	4.06988e-05
69.3638	0.0084198	64.5	646	0.000198366
69.8638	0.00843506	65	651	0.000488284
70.3638	0.00843506	65.5	656	-1.01701e-05
70.8638	0.00843201	66	661	2.0337e-05
71.3638	0.00842896	66.5	666	-8.64423e-05
71.8638	0.00844727	67	671	0.000259405
72.3638	0.00844727	67.5	676	-1.52613e-05
72.8638	0.00844116	68	681	4.06864e-05
73.3638	0.00846252	68.5	686	0.00048318
73.8638	0.00845032	69	691	0.000239058
74.3638	0.00844116	69.5	696	-0.000284805
74.8638	0.00845337	70	701	0.000223813
75.3638	0.00844727	70.5	706	-0.000584927
75.8638	0.00846252	71	711	0.000478101
76.3638	0.00844421	71.5	716	-0.000188196
76.8638	0.00845947	72	721	-0.000371294
77.3638	0.00846863	72.5	726	3.05164e-05
77.8638	0.00847168	73	731	-1.52551e-05
78.3638	0.00846252	73.5	736	-0.00019329
78.8638	0.00847168	74	741	0.000117005
79.3638	0.00846558	74.5	746	-0.000172947
79.8638	0.00849304	75	751	0.000371306
80.3638	0.00848083	75.5	756	-0.000152591
80.8638	0.00848083	76	761	-0.000376391
81.3638	0.00848083	76.5	766	5.08503e-06
81.8638	0.00848999	77	771	-1.52551e-05
82.3638	0.0085144	77.5	776	0.000254307
82.8638	0.0085083	78	781	-4.06864e-05
83.3638	0.00849915	78.5	786	0.000325519
83.8638	0.00851746	79	791	3.05412e-05
84.3638	0.00849915	79.5	796	-0.000111902
84.8638	0.00849609	80	801	-0.000162749
85.3638	0.00851135	80.5	806	0.000188183
85.8638	0.00850525	81	811	0.000305195
86.3638	0.00854187	81.5	816	0.000137302
86.8638	0.00853271	82	821	0.0001526
87.3638	0.00851746	82.5	826	-8.64641e-05
87.8638	0.00852966	83	831	-8.13821e-05
88.3638	0.00852661	83.5	836	0.000391625
88.8638	0.00852661	84	841	-0.000101738
89.3638	0.00852966	84.5	846	-1.24176e-08
89.8638	0.00853882	85	851	5.59229e-05
90.3638	0.00853577	85.5	856	-0.000269565
90.8638	0.00853271	86	861	-0.000706992
91.3638	0.00853882	86.5	866	0.00012716
91.8638	0.00855103	87	871	-9.66403e-05
92.3638	0.00853882	87.5	876	-0.000106813
92.8638	0.00855103	88	881	-0.000106789
93.3638	0.00855713	88.5	886	0.000147491
93.8638	0.00855408	89	891	0.000132226
94.3638	0.00856628	89.5	896	-0.000188196
94.8638	0.00855713	90	901	0.000239046
95.3638	0.00856934	90.5	906	0.000122053
95.8638	0.00856628	91	911	-7.12152e-05
96.3638	0.00857239	91.5	916	0.000584921
96.8638	0.00857849	92	921	-0.000218712
97.3638	0.00857239	92.5	926	1.01763e-05
97.8638	0.00857849	93	931	0.000289915
98.3638	0.00858765	93.5	936	0.000645944
98.8638	0.00858765	94	941	-4.57683e-05
99.3638	0.00857544	94.5	946	0.000116968
99.8638	0.00857544	95	951	-0.000350954
100.364	0.00858154	95.5	956	0.000330617
100.864	0.0085907	96	961	-9.66372e-05
101.364	0.0085907	96.5	966	-0.000101728
101.864	0.00858765	97	971	-2.03432e-05
102.364	0.00858765	97.5	976	-5.07571e-06
102.864	0.00859985	98	981	0.000218715
103.364	0.0085968	98.5	986	4.57777e-05
103.864	0.00861206	99	991	1.01794e-05
104.364	0.00861511	99.5	996	2.03122e-05
104.864	0.00860596	100	1001	0.000111902
105.364	0.00859985	100.5	1006	0.000142399
105.864	0.00861206	101	1011	-0.000127135
106.364	0.00861511	101.5	1016	-2.03774e-05
106.864	0.00862427	102	1021	-2.54282e-05
107.364	0.00862732	102.5	1026	0.000274672
107.864	0.00862122	103	1031	-0.000101741
108.364	0.00861206	103.5	1036	6.20882e-09
108.864	0.00863037	104	1041	0.000564562
109.364	0.00864563	104.5	1046	0.000274647
109.864	0.00861816	105	1051	-0.000147509
110.364	0.00863647	105.5	1056	6.61302e-05
110.864	0.00863647	106	1061	-0.000172925
111.364	0.00862427	106.5	1066	-0.000381464
111.864	0.00863342	107	1071	0.000289909
112.364	0.00864563	107.5	1076	0.000228888
112.864	0.00864258	108	1081	5.08813e-06
113.364	0.00864868	108.5	1086	-0.000132245
113.864	0.00865479	109	1091	-0.000178022
114.364	0.00865479	109.5	1096	-0.000218712
114.864	0.00863953	110	1101	-0.000488284
115.364	0.00865479	110.5	1106	0.000284824
115.864	0.00865784	111	1111	0.000401841
116.364	0.00866699	111.5	1116	0.000279723
116.864	0.00866699	112	1121	0.000137327
117.364	0.00866089	112.5	1126	-0.000116977
117.864	0.0086731	113	1131	0.000330604
118.364	0.00867615	113.5	1136	0.000498447
118.864	0.00866394	114	1141	0.000249219
119.364	0.00868225	114.5	1146	0.00010682
119.864	0.00867004	115	1151	-0.000101719
120.364	0.0086792	115.5	1156	0.000122062
120.864	0.00868225	116	1161	0.000361127
121.364	0.0086731	116.5	1166	0.000101747
121.864	0.00867615	117	1171	8.64703e-05
122.364	0.00867615	117.5	1176	-0.000366215
122.864	0.0086853	118	1181	-0.000208526
123.364	0.00869141	118.5	1186	6.61084e-05
123.864	0.00868225	119	1191	4.57839e-05
124.364	0.00869446	119.5	1196	0.000447594
124.764	0.00868835	119.9	1200	0.000254341