File: data/20200212/OCP_p28_1.txt
Time (s)	WE(1).Potential (V)	Corrected time (s)	Index	dWE(1).Potential/dt (V/s)	Cutoffs	OCP value (V)
4.4598	0.00218201	0	1	0	dWE(1).Potential/dt < 1E-06 V/s	0.000862959
4.5598	0.00217896	0.1	2	-3.05171e-05	dWE(1).Potential/dt < 1E-06 V/s
4.6598	0.00217896	0.2	3	1.52597e-05
4.7598	0.0021759	0.3	4	-6.61209e-05	dWE(1).Potential/dt < 1E-06 V/s
4.8598	0.00217285	0.4	5	-2.03471e-05	dWE(1).Potential/dt < 1E-06 V/s
4.9598	0.00217285	0.5	6	2.54306e-05
5.0598	0.0021759	0.6	7	4.57792e-05
5.1598	0.00216675	0.7	8	-0.000203452	dWE(1).Potential/dt < 1E-06 V/s
5.2598	0.00216675	0.8	9	0.000116985
5.3598	0.0021698	0.9	10	2.54298e-05
5.4598	0.00216064	1	11	-0.000203445	dWE(1).Potential/dt < 1E-06 V/s
5.5598	0.00215759	1.1	12	6.10296e-05
5.6598	0.00215149	1.2	13	-0.00010681	dWE(1).Potential/dt < 1E-06 V/s
5.7598	0.00215759	1.3	14	0.00017293
5.8598	0.00215149	1.4	15	-0.000203449	dWE(1).Potential/dt < 1E-06 V/s
5.9598	0.00215149	1.5	16	9.15522e-05
6.0598	0.00214844	1.6	17	-7.62925e-05	dWE(1).Potential/dt < 1E-06 V/s
6.1598	0.00214844	1.7	18	3.56014e-05
6.2598	0.00214539	1.8	19	-6.61209e-05	dWE(1).Potential/dt < 1E-06 V/s
6.3598	0.00213928	1.9	20	-7.62948e-05	dWE(1).Potential/dt < 1E-06 V/s
6.4598	0.00213623	2	21	5.09046e-06
6.5598	0.00213928	2.1	22	7.12043e-05
6.6598	0.00213623	2.2	23	-0.000101721	dWE(1).Potential/dt < 1E-06 V/s
6.7598	0.00213318	2.3	24	-1.01732e-05	dWE(1).Potential/dt < 1E-06 V/s
6.8598	0.00213318	2.4	25	2.5429e-05
6.9598	0.00212708	2.5	26	-0.000122075	dWE(1).Potential/dt < 1E-06 V/s
7.0598	0.00212402	2.6	27	1.52605e-05
7.1598	0.00211792	2.7	28	-9.66349e-05	dWE(1).Potential/dt < 1E-06 V/s
7.2598	0.00212402	2.8	29	0.000172927
7.3598	0.00212402	2.9	30	-9.15483e-05	dWE(1).Potential/dt < 1E-06 V/s
7.4598	0.00210571	3	31	-0.000315347	dWE(1).Potential/dt < 1E-06 V/s
7.5598	0.00211792	3.1	32	0.000437419
7.6598	0.00211182	3.2	33	-0.000315355	dWE(1).Potential/dt < 1E-06 V/s
7.7598	0.00210876	3.3	34	5.59508e-05
7.8598	0.00210571	3.4	35	-4.06872e-05	dWE(1).Potential/dt < 1E-06 V/s
7.9598	0.00210876	3.5	36	8.13775e-05
8.0598	0.00209656	3.6	37	-0.000269571	dWE(1).Potential/dt < 1E-06 V/s
8.1598	0.00209961	3.7	38	0.000208539
8.2598	0.00209961	3.8	39	-7.62932e-05	dWE(1).Potential/dt < 1E-06 V/s
8.3598	0.00209045	3.9	40	-0.000157675	dWE(1).Potential/dt < 1E-06 V/s
8.4598	0.00209351	4	41	0.00016276
8.5598	0.00209351	4.1	42	-6.61193e-05	dWE(1).Potential/dt < 1E-06 V/s
8.6598	0.0020874	4.2	43	-0.000101722	dWE(1).Potential/dt < 1E-06 V/s
8.7598	0.00208435	4.3	44	1.52559e-05
8.8598	0.0020874	4.4	45	7.12098e-05
8.9598	0.0020752	4.5	46	-0.000269575	dWE(1).Potential/dt < 1E-06 V/s
9.0598	0.00207825	4.6	47	0.000208537
9.1598	0.0020813	4.7	48	-2.0344e-05	dWE(1).Potential/dt < 1E-06 V/s
9.2598	0.00207825	4.8	49	-8.13821e-05	dWE(1).Potential/dt < 1E-06 V/s
9.3598	0.0020752	4.9	50	-1.01693e-05	dWE(1).Potential/dt < 1E-06 V/s
9.4598	0.00207825	5	51	8.13775e-05
9.5598	0.00207214	5.1	52	-0.000157669	dWE(1).Potential/dt < 1E-06 V/s
9.6598	0.00207214	5.2	53	8.13759e-05
9.7598	0.00206604	5.3	54	-0.000132247	dWE(1).Potential/dt < 1E-06 V/s
9.8598	0.00206299	5.4	55	1.52605e-05
9.9598	0.00205994	5.5	56	-4.06872e-05	dWE(1).Potential/dt < 1E-06 V/s
10.0598	0.00205688	5.6	57	-3.05179e-05	dWE(1).Potential/dt < 1E-06 V/s
10.1598	0.00205994	5.7	58	8.13767e-05
10.2598	0.00205383	5.8	59	-0.00015767	dWE(1).Potential/dt < 1E-06 V/s
10.3598	0.00205078	5.9	60	2.54275e-05
10.4598	0.00205383	6	61	7.12121e-05
10.5598	0.00205078	6.1	62	-0.00010173	dWE(1).Potential/dt < 1E-06 V/s
10.6598	0.00205078	6.2	63	4.57761e-05
10.7598	0.00204468	6.3	64	-0.00012207	dWE(1).Potential/dt < 1E-06 V/s
10.8598	0.00204468	6.4	65	7.12074e-05
10.9598	0.00204468	6.5	66	-2.03448e-05	dWE(1).Potential/dt < 1E-06 V/s
11.0598	0.00203857	6.6	67	-0.000111895	dWE(1).Potential/dt < 1E-06 V/s
11.1598	0.00203552	6.7	68	1.52551e-05
11.2598	0.00203247	6.8	69	-4.06895e-05	dWE(1).Potential/dt < 1E-06 V/s
11.3598	0.00202942	6.9	70	-3.05148e-05	dWE(1).Potential/dt < 1E-06 V/s
11.4598	0.00202637	7	71	-3.05179e-05	dWE(1).Potential/dt < 1E-06 V/s
11.5598	0.00202332	7.1	72	-3.05187e-05	dWE(1).Potential/dt < 1E-06 V/s
11.6598	0.00202332	7.2	73	2.54344e-05
11.7598	0.00202026	7.3	74	-6.61247e-05	dWE(1).Potential/dt < 1E-06 V/s
11.8598	0.00202026	7.4	75	3.56029e-05
11.9598	0.00201721	7.5	76	-6.61224e-05	dWE(1).Potential/dt < 1E-06 V/s
12.0598	0.00202026	7.6	77	9.15538e-05
12.1598	0.00201111	7.7	78	-0.000213622	dWE(1).Potential/dt < 1E-06 V/s
12.2598	0.00201721	7.8	79	0.000228877
12.3598	0.00200195	7.9	80	-0.000381465	dWE(1).Potential/dt < 1E-06 V/s
12.4598	0.00200195	8	81	0.000198365
12.5598	0.0019989	8.1	82	-0.00010681	dWE(1).Potential/dt < 1E-06 V/s
12.6598	0.002005	8.2	83	0.000147498
12.7598	0.00200195	8.3	84	-0.000137329	dWE(1).Potential/dt < 1E-06 V/s
12.8598	0.0019989	8.4	85	3.10441e-09	dWE(1).Potential/dt < 1E-06 V/s
12.9598	0.00199585	8.5	86	-3.05179e-05	dWE(1).Potential/dt < 1E-06 V/s
13.0598	0.0019928	8.6	87	-3.05187e-05	dWE(1).Potential/dt < 1E-06 V/s
13.1598	0.00199585	8.7	88	8.13821e-05
13.2598	0.0019928	8.8	89	-0.000101726	dWE(1).Potential/dt < 1E-06 V/s
13.3598	0.00198059	8.9	90	-0.000178018	dWE(1).Potential/dt < 1E-06 V/s
13.4598	0.00198364	9	91	0.000188189
13.5598	0.00197754	9.1	92	-0.000188188	dWE(1).Potential/dt < 1E-06 V/s
13.6598	0.00198975	9.2	93	0.000305172
13.7598	0.00198364	9.3	94	-0.000274657	dWE(1).Potential/dt < 1E-06 V/s
13.8598	0.00198059	9.4	95	5.59493e-05
13.9598	0.00198059	9.5	96	1.52566e-05
14.0598	0.00196838	9.6	97	-0.00023397	dWE(1).Potential/dt < 1E-06 V/s
14.1598	0.00197754	9.7	98	0.000310267
14.2598	0.00197144	9.8	99	-0.000259402	dWE(1).Potential/dt < 1E-06 V/s
14.3598	0.00196838	9.9	100	4.57808e-05
14.4598	0.00197449	10	101	0.000127152
14.5598	0.00197144	10.1	102	-0.000137329	dWE(1).Potential/dt < 1E-06 V/s
14.6598	0.00196228	10.2	103	-0.000111892	dWE(1).Potential/dt < 1E-06 V/s
14.7598	0.00195923	10.3	104	4.06849e-05
14.8598	0.00195923	10.4	105	5.0858e-06
14.9598	0.00195618	10.5	106	-6.61224e-05	dWE(1).Potential/dt < 1E-06 V/s
15.0598	0.001953125	10.6	107	-2.03417e-05	dWE(1).Potential/dt < 1E-06 V/s
15.1598	0.00195923	10.7	108	0.000137325
15.2598	0.00195007	10.8	109	-0.000249224	dWE(1).Potential/dt < 1E-06 V/s
15.3598	0.00194702	10.9	110	7.12028e-05
15.4598	0.00195007	11	111	6.10374e-05
15.5598	0.00195007	11.1	112	-4.57784e-05	dWE(1).Potential/dt < 1E-06 V/s
15.6598	0.00194092	11.2	113	-0.000157677	dWE(1).Potential/dt < 1E-06 V/s
15.7598	0.00194702	11.3	114	0.000218714
15.8598	0.00194092	11.4	115	-0.000213628	dWE(1).Potential/dt < 1E-06 V/s
15.9598	0.00194397	11.5	116	0.000147507
16.0598	0.00194092	11.6	117	-0.0001119	dWE(1).Potential/dt < 1E-06 V/s
16.1598	0.00193787	11.7	118	-1.01693e-05	dWE(1).Potential/dt < 1E-06 V/s
16.2598	0.00193176	11.8	119	-8.64691e-05	dWE(1).Potential/dt < 1E-06 V/s
16.3598	0.00193481	11.9	120	0.000116984
16.4598	0.00193481	12	121	-5.59508e-05	dWE(1).Potential/dt < 1E-06 V/s
16.5598	0.00193176	12.1	122	-4.57788e-05	dWE(1).Potential/dt < 1E-06 V/s
16.6598	0.00192871	12.2	123	-2.0344e-05	dWE(1).Potential/dt < 1E-06 V/s
16.7598	0.00193176	12.3	124	8.13814e-05
16.8598	0.00192566	12.4	125	-0.000157677	dWE(1).Potential/dt < 1E-06 V/s
16.9598	0.00191956	12.5	126	-3.05121e-05	dWE(1).Potential/dt < 1E-06 V/s
17.0598	0.00192261	12.6	127	0.000106806
17.1598	0.00191956	12.7	128	-0.000111895	dWE(1).Potential/dt < 1E-06 V/s
17.2598	0.00191956	12.8	129	4.57738e-05
17.3598	0.00191345	12.9	130	-0.000122072	dWE(1).Potential/dt < 1E-06 V/s
17.4598	0.00191956	13	131	0.00018311
17.5598	0.00191345	13.1	132	-0.000203455	dWE(1).Potential/dt < 1E-06 V/s
17.6598	0.0019043	13.2	133	-7.62897e-05	dWE(1).Potential/dt < 1E-06 V/s
17.7598	0.0019043	13.3	134	8.64633e-05
17.8598	0.0019043	13.4	135	-3.05183e-05	dWE(1).Potential/dt < 1E-06 V/s
17.9598	0.00189514	13.5	136	-0.00016785	dWE(1).Potential/dt < 1E-06 V/s
18.0598	0.00190735	13.6	137	0.000330613
18.1598	0.0019043	13.7	138	-0.000228883	dWE(1).Potential/dt < 1E-06 V/s
18.2598	0.00189819	13.8	139	-3.56068e-05	dWE(1).Potential/dt < 1E-06 V/s
18.3598	0.00189819	13.9	140	6.10389e-05
18.4598	0.00189209	14	141	-0.000132242	dWE(1).Potential/dt < 1E-06 V/s
18.5598	0.00189819	14.1	142	0.000183106
18.6598	0.00189819	14.2	143	-9.1551e-05	dWE(1).Potential/dt < 1E-06 V/s
18.7598	0.00188904	14.3	144	-0.0001475	dWE(1).Potential/dt < 1E-06 V/s
18.8598	0.00188293	14.4	145	-5.09007e-06	dWE(1).Potential/dt < 1E-06 V/s
18.9598	0.00188599	14.5	146	9.66415e-05
19.0598	0.00187988	14.6	147	-0.00016785	dWE(1).Potential/dt < 1E-06 V/s
19.1598	0.00187988	14.7	148	8.13833e-05
19.2598	0.00188293	14.8	149	3.56064e-05
19.3598	0.00187988	14.9	150	-9.15545e-05	dWE(1).Potential/dt < 1E-06 V/s
19.4598	0.00187988	15	151	4.57784e-05
19.5598	0.00187683	15.1	152	-6.61197e-05	dWE(1).Potential/dt < 1E-06 V/s
19.6598	0.00187683	15.2	153	3.56022e-05
19.7598	0.00187378	15.3	154	-6.61201e-05	dWE(1).Potential/dt < 1E-06 V/s
19.8598	0.00187073	15.4	155	-2.03494e-05	dWE(1).Potential/dt < 1E-06 V/s
19.9598	0.00186157	15.5	156	-0.000142415	dWE(1).Potential/dt < 1E-06 V/s
20.0598	0.00187683	15.6	157	0.000376384
20.1598	0.00186462	15.7	158	-0.000432334	dWE(1).Potential/dt < 1E-06 V/s
20.2598	0.00186157	15.8	159	0.000137333
20.3598	0.00186462	15.9	160	5.08596e-05
20.4598	0.00186462	16	161	-4.57738e-05	dWE(1).Potential/dt < 1E-06 V/s
20.5598	0.00185852	16.1	162	-0.000101722	dWE(1).Potential/dt < 1E-06 V/s
20.6598	0.00186157	16.2	163	0.000127151
20.7598	0.00185852	16.3	164	-0.000111895	dWE(1).Potential/dt < 1E-06 V/s
20.8598	0.00185547	16.4	165	-1.0177e-05	dWE(1).Potential/dt < 1E-06 V/s
20.9598	0.00185242	16.5	166	-3.05164e-05	dWE(1).Potential/dt < 1E-06 V/s
21.0598	0.00184937	16.6	167	-3.05171e-05	dWE(1).Potential/dt < 1E-06 V/s
21.1598	0.00184937	16.7	168	2.54333e-05
21.2598	0.00185547	16.8	169	0.000101727
21.3598	0.00185242	16.9	170	-0.000127159	dWE(1).Potential/dt < 1E-06 V/s
21.4598	0.00184631	17	171	-5.59469e-05	dWE(1).Potential/dt < 1E-06 V/s
21.5598	0.00184937	17.1	172	0.000116982
21.6598	0.00184937	17.2	173	-5.59465e-05	dWE(1).Potential/dt < 1E-06 V/s
21.7598	0.00184326	17.3	174	-0.000101722	dWE(1).Potential/dt < 1E-06 V/s
21.8598	0.00184326	17.4	175	7.12036e-05
21.9598	0.00184021	17.5	176	-7.62963e-05	dWE(1).Potential/dt < 1E-06 V/s
22.0598	0.00184326	17.6	177	9.15545e-05
22.1598	0.00184021	17.7	178	-0.000101729	dWE(1).Potential/dt < 1E-06 V/s
22.2598	0.00183105	17.8	179	-0.00012207	dWE(1).Potential/dt < 1E-06 V/s
22.3598	0.00183411	17.9	180	0.000152587
22.4598	0.001828	18	181	-0.000178014	dWE(1).Potential/dt < 1E-06 V/s
22.5598	0.00183411	18.1	182	0.000193271
22.6598	0.00183105	18.2	183	-0.000147496	dWE(1).Potential/dt < 1E-06 V/s
22.7598	0.00183105	18.3	184	5.59469e-05
22.8598	0.001828	18.4	185	-6.61201e-05	dWE(1).Potential/dt < 1E-06 V/s
22.9598	0.001828	18.5	186	3.56014e-05
23.0598	0.00182495	18.6	187	-6.6124e-05	dWE(1).Potential/dt < 1E-06 V/s
23.1598	0.001828	18.7	188	9.15545e-05
23.2598	0.00182495	18.8	189	-0.000101729	dWE(1).Potential/dt < 1E-06 V/s
23.3598	0.00182495	18.9	190	4.57765e-05
23.4598	0.0018158	19	191	-0.00017802	dWE(1).Potential/dt < 1E-06 V/s
23.5598	0.0018219	19.1	192	0.000218711
23.6598	0.00182495	19.2	193	-4.57757e-05	dWE(1).Potential/dt < 1E-06 V/s
23.7598	0.00181274	19.3	194	-0.000239055	dWE(1).Potential/dt < 1E-06 V/s
23.8598	0.0018158	19.4	195	0.000208534
23.9598	0.00180664	19.5	196	-0.000244138	dWE(1).Potential/dt < 1E-06 V/s
24.0598	0.00179749	19.6	197	-5.08604e-05	dWE(1).Potential/dt < 1E-06 V/s
24.1598	0.00178528	19.7	198	-0.000147506	dWE(1).Potential/dt < 1E-06 V/s
24.2598	0.00179138	19.8	199	0.000223798
24.3598	0.00179138	19.9	200	-0.000111896	dWE(1).Potential/dt < 1E-06 V/s
24.4598	0.00178528	20	201	-9.15522e-05	dWE(1).Potential/dt < 1E-06 V/s
24.5598	0.00178223	20.1	202	1.52593e-05
24.6598	0.00177917	20.2	203	-4.06946e-05	dWE(1).Potential/dt < 1E-06 V/s
24.7598	0.00177612	20.3	204	-3.05164e-05	dWE(1).Potential/dt < 1E-06 V/s
24.8598	0.00177307	20.4	205	-3.05171e-05	dWE(1).Potential/dt < 1E-06 V/s
24.9598	0.00177307	20.5	206	2.54333e-05
25.0598	0.00177002	20.6	207	-6.61197e-05	dWE(1).Potential/dt < 1E-06 V/s
25.1598	0.00176697	20.7	208	-2.03455e-05	dWE(1).Potential/dt < 1E-06 V/s
25.2598	0.00176392	20.8	209	-3.05218e-05	dWE(1).Potential/dt < 1E-06 V/s
25.3598	0.00176086	20.9	210	-3.05164e-05	dWE(1).Potential/dt < 1E-06 V/s
25.4598	0.00176697	21	211	0.000137332
25.5598	0.00175781	21.1	212	-0.000249233	dWE(1).Potential/dt < 1E-06 V/s
25.6598	0.00175781	21.2	213	0.000127161
25.7598	0.00175781	21.3	214	-3.05171e-05	dWE(1).Potential/dt < 1E-06 V/s
25.8598	0.00175781	21.4	215	7.76103e-10	dWE(1).Potential/dt < 1E-06 V/s
25.9598	0.00175171	21.5	216	-0.000111895	dWE(1).Potential/dt < 1E-06 V/s
26.0598	0.00174561	21.6	217	-4.0695e-05	dWE(1).Potential/dt < 1E-06 V/s
26.1598	0.00174866	21.7	218	0.000106814
26.2598	0.00174255	21.8	219	-0.00016785	dWE(1).Potential/dt < 1E-06 V/s
26.3598	0.0017395	21.9	220	2.54356e-05
26.4598	0.0017395	22	221	1.5257e-05
26.5598	0.0017395	22.1	222	-1.01724e-05	dWE(1).Potential/dt < 1E-06 V/s
26.6598	0.00173645	22.2	223	-5.59477e-05	dWE(1).Potential/dt < 1E-06 V/s
26.7598	0.0017334	22.3	224	-2.03494e-05	dWE(1).Potential/dt < 1E-06 V/s
26.8598	0.0017334	22.4	225	2.54344e-05
26.9598	0.00172729	22.5	226	-0.000122071	dWE(1).Potential/dt < 1E-06 V/s
27.0598	0.00173035	22.6	227	0.000127157
27.1598	0.00172729	22.7	228	-0.000111901	dWE(1).Potential/dt < 1E-06 V/s
27.2598	0.00173035	22.8	229	0.000101728
27.3598	0.00172119	22.9	230	-0.000213624	dWE(1).Potential/dt < 1E-06 V/s
27.4598	0.00172119	23	231	0.000116986
27.5598	0.00172119	23.1	232	-3.05168e-05	dWE(1).Potential/dt < 1E-06 V/s
27.6598	0.00171204	23.2	233	-0.000167849	dWE(1).Potential/dt < 1E-06 V/s
27.7598	0.00171509	23.3	234	0.000162762
27.8598	0.00171509	23.4	235	-6.61232e-05	dWE(1).Potential/dt < 1E-06 V/s
27.9598	0.00171204	23.5	236	-4.57784e-05	dWE(1).Potential/dt < 1E-06 V/s
28.0598	0.00171814	23.6	237	0.000147503
28.1598	0.00170593	23.7	238	-0.000305173	dWE(1).Potential/dt < 1E-06 V/s
28.2598	0.00170593	23.8	239	0.00016276
28.3598	0.00170288	23.9	240	-9.66399e-05	dWE(1).Potential/dt < 1E-06 V/s
28.4598	0.00170288	24	241	3.56053e-05
28.5598	0.00169983	24.1	242	-6.61201e-05	dWE(1).Potential/dt < 1E-06 V/s
28.6598	0.00169678	24.2	243	-2.0349e-05	dWE(1).Potential/dt < 1E-06 V/s
28.7598	0.00169678	24.3	244	2.54317e-05
28.8598	0.00169983	24.4	245	4.57773e-05
28.9598	0.00169678	24.5	246	-9.15561e-05	dWE(1).Potential/dt < 1E-06 V/s
29.0598	0.00169373	24.6	247	-1.01708e-05	dWE(1).Potential/dt < 1E-06 V/s
29.1598	0.00168762	24.7	248	-8.64676e-05	dWE(1).Potential/dt < 1E-06 V/s
29.2598	0.00168762	24.8	249	6.10366e-05
29.3598	0.00169067	24.9	250	3.5606e-05
29.4598	0.00168762	25	251	-9.15549e-05	dWE(1).Potential/dt < 1E-06 V/s
29.5598	0.00168762	25.1	252	4.5778e-05
29.6598	0.00167847	25.2	253	-0.000178019	dWE(1).Potential/dt < 1E-06 V/s
29.7598	0.00168457	25.3	254	0.000218709
29.8598	0.00168152	25.4	255	-0.000157677	dWE(1).Potential/dt < 1E-06 V/s
29.9598	0.00168457	25.5	256	0.0001119
30.0598	0.00167847	25.6	257	-0.000157677	dWE(1).Potential/dt < 1E-06 V/s
30.1598	0.00167542	25.7	258	2.54337e-05
30.2598	0.00167542	25.8	259	1.52593e-05
30.3598	0.00167847	25.9	260	4.57761e-05
30.4598	0.00167542	26	261	-9.15514e-05	dWE(1).Potential/dt < 1E-06 V/s
30.5598	0.00167236	26.1	262	-1.01739e-05	dWE(1).Potential/dt < 1E-06 V/s
30.6598	0.00166016	26.2	263	-0.000198361	dWE(1).Potential/dt < 1E-06 V/s
30.7598	0.0016571	26.3	264	7.62917e-05
30.8598	0.00166016	26.4	265	5.08662e-05
30.9598	0.00165405	26.5	266	-0.000157675	dWE(1).Potential/dt < 1E-06 V/s
31.0598	0.0016571	26.6	267	0.000137327
31.1598	0.00165405	26.7	268	-0.000111895	dWE(1).Potential/dt < 1E-06 V/s
31.2598	0.00166016	26.8	269	0.000157673
31.3598	0.001651	26.9	270	-0.000249228	dWE(1).Potential/dt < 1E-06 V/s
31.4598	0.00164795	27	271	7.12086e-05
31.5598	0.00164795	27.1	272	5.0858e-06
31.6598	0.001651	27.2	273	4.57753e-05
31.7598	0.00164795	27.3	274	-9.15522e-05	dWE(1).Potential/dt < 1E-06 V/s
31.8598	0.0016449	27.4	275	-1.01716e-05	dWE(1).Potential/dt < 1E-06 V/s
31.9598	0.0016449	27.5	276	2.54321e-05
32.0598	0.00164185	27.6	277	-6.61224e-05	dWE(1).Potential/dt < 1E-06 V/s
32.1598	0.00163879	27.7	278	-2.03424e-05	dWE(1).Potential/dt < 1E-06 V/s
32.2598	0.00163879	27.8	279	2.5429e-05
32.3598	0.00164185	27.9	280	4.57749e-05
32.4598	0.00163574	28	281	-0.0001475	dWE(1).Potential/dt < 1E-06 V/s
32.5598	0.00162964	28.1	282	-3.05168e-05	dWE(1).Potential/dt < 1E-06 V/s
32.6598	0.00162659	28.2	283	-5.08774e-06	dWE(1).Potential/dt < 1E-06 V/s
32.7598	0.00163574	28.3	284	0.000183107
32.8598	0.00163269	28.4	285	-0.000172934	dWE(1).Potential/dt < 1E-06 V/s
32.9598	0.00162354	28.5	286	-0.000101725	dWE(1).Potential/dt < 1E-06 V/s
33.0598	0.00162354	28.6	287	9.6638e-05
33.1598	0.00162964	28.7	288	8.13806e-05
33.2598	0.00162048	28.8	289	-0.000239056	dWE(1).Potential/dt < 1E-06 V/s
33.3598	0.00162048	28.9	290	0.000127156
33.4598	0.00161743	29	291	-8.64664e-05	dWE(1).Potential/dt < 1E-06 V/s
33.5598	0.00162048	29.1	292	9.15514e-05
33.6598	0.00161133	29.2	293	-0.000213623	dWE(1).Potential/dt < 1E-06 V/s
33.7598	0.00161438	29.3	294	0.000172936
33.8598	0.00161133	29.4	295	-0.000122072	dWE(1).Potential/dt < 1E-06 V/s
33.9598	0.00161133	29.5	296	4.5778e-05
34.0598	0.00161133	29.6	297	-1.01724e-05	dWE(1).Potential/dt < 1E-06 V/s
34.1598	0.00160828	29.7	298	-5.59473e-05	dWE(1).Potential/dt < 1E-06 V/s
[...]
109.96	0.00093689	105.5	1056	-0.00021871	dWE(1).Potential/dt < 1E-06 V/s
110.06	0.000942993	105.6	1057	0.000213621
110.16	0.000927734	105.7	1058	-0.000371298	dWE(1).Potential/dt < 1E-06 V/s
110.26	0.000930786	105.8	1059	0.000254313
110.36	0.000933838	105.9	1060	-3.05169e-05	dWE(1).Potential/dt < 1E-06 V/s
110.46	0.000933838	106	1061	-2.54304e-05	dWE(1).Potential/dt < 1E-06 V/s
110.56	0.000933838	106.1	1062	1.01732e-05
110.66	0.000924683	106.2	1063	-0.000167847	dWE(1).Potential/dt < 1E-06 V/s
110.76	0.000930786	106.3	1064	0.000218711
110.86	0.000927734	106.4	1065	-0.000157676	dWE(1).Potential/dt < 1E-06 V/s
110.96	0.000930786	106.5	1066	0.000111897
111.06	0.000927734	106.6	1067	-0.000101725	dWE(1).Potential/dt < 1E-06 V/s
111.16	0.000939941	106.7	1068	0.000269571
111.26	0.000930786	106.8	1069	-0.000320433	dWE(1).Potential/dt < 1E-06 V/s
111.36	0.000933838	106.9	1070	0.00020345
111.46	0.000927734	107	1071	-0.000178019	dWE(1).Potential/dt < 1E-06 V/s
111.56	0.000921631	107.1	1072	-3.05179e-05	dWE(1).Potential/dt < 1E-06 V/s
111.66	0.000930786	107.2	1073	0.000218708
111.76	0.000930786	107.3	1074	-0.000127156	dWE(1).Potential/dt < 1E-06 V/s
111.86	0.000924683	107.4	1075	-8.1381e-05	dWE(1).Potential/dt < 1E-06 V/s
111.96	0.000924683	107.5	1076	7.1209e-05
112.06	0.000927734	107.6	1077	3.56045e-05
112.16	0.000921631	107.7	1078	-0.000147503	dWE(1).Potential/dt < 1E-06 V/s
112.26	0.000921631	107.8	1079	8.13794e-05
112.36	0.000915527	107.9	1080	-0.000132244	dWE(1).Potential/dt < 1E-06 V/s
112.46	0.000918579	108	1081	0.000127158
112.56	0.000921631	108.1	1082	1.16415e-09	dWE(1).Potential/dt < 1E-06 V/s
112.66	0.000921631	108.2	1083	-2.54329e-05	dWE(1).Potential/dt < 1E-06 V/s
112.76	0.000924683	108.3	1084	6.61199e-05
112.86	0.000921631	108.4	1085	-9.15495e-05	dWE(1).Potential/dt < 1E-06 V/s
112.96	0.000924683	108.5	1086	0.000101722
113.06	0.000927734	108.6	1087	1.01751e-05
113.16	0.000921631	108.7	1088	-0.00013733	dWE(1).Potential/dt < 1E-06 V/s
113.26	0.000924683	108.8	1089	0.000137327
113.36	0.000918579	108.9	1090	-0.000167844	dWE(1).Potential/dt < 1E-06 V/s
113.46	0.000915527	109	1091	2.5431e-05
113.56	0.000915527	109.1	1092	1.52586e-05
113.66	0.000918579	109.2	1093	4.57767e-05
113.76	0.000918579	109.3	1094	-3.56029e-05	dWE(1).Potential/dt < 1E-06 V/s
113.86	0.000918579	109.4	1095	1.01732e-05
113.96	0.000915527	109.5	1096	-5.59487e-05	dWE(1).Potential/dt < 1E-06 V/s
114.06	0.000909424	109.6	1097	-7.6295e-05	dWE(1).Potential/dt < 1E-06 V/s
114.16	0.000912476	109.7	1098	0.000116986
114.26	0.000915527	109.8	1099	-1.55221e-09	dWE(1).Potential/dt < 1E-06 V/s
114.36	0.000912476	109.9	1100	-8.13802e-05	dWE(1).Potential/dt < 1E-06 V/s
114.46	0.000915527	110	1101	0.000101725
114.56	0.000909424	110.1	1102	-0.000157675	dWE(1).Potential/dt < 1E-06 V/s
114.66	0.000912476	110.2	1103	0.000137331
114.76	0.000912476	110.3	1104	-5.59508e-05	dWE(1).Potential/dt < 1E-06 V/s
114.86	0.000909424	110.4	1105	-4.57773e-05	dWE(1).Potential/dt < 1E-06 V/s
114.96	0.000909424	110.5	1106	3.56055e-05
115.06	0.000906372	110.6	1107	-6.61199e-05	dWE(1).Potential/dt < 1E-06 V/s
115.16	0.000906372	110.7	1108	3.56018e-05
115.26	0.000900269	110.8	1109	-0.000122071	dWE(1).Potential/dt < 1E-06 V/s
115.36	0.00090332	110.9	1110	0.000127158
115.46	0.00090332	111	1111	-5.59481e-05	dWE(1).Potential/dt < 1E-06 V/s
115.56	0.000897217	111.1	1112	-0.000101725	dWE(1).Potential/dt < 1E-06 V/s
115.66	0.000897217	111.2	1113	7.12065e-05
115.76	0.000900269	111.3	1114	3.56035e-05
115.86	0.000897217	111.4	1115	-9.15528e-05	dWE(1).Potential/dt < 1E-06 V/s
115.96	0.000900269	111.5	1116	0.000101725
116.06	0.000900269	111.6	1117	-4.57761e-05	dWE(1).Potential/dt < 1E-06 V/s
116.16	0.000900269	111.7	1118	1.01726e-05
116.26	0.000897217	111.8	1119	-5.59493e-05	dWE(1).Potential/dt < 1E-06 V/s
116.36	0.000894165	111.9	1120	-2.03463e-05	dWE(1).Potential/dt < 1E-06 V/s
116.46	0.000897217	112	1121	8.13821e-05
116.56	0.000900269	112.1	1122	1.0171e-05
116.66	0.000897217	112.2	1123	-8.13802e-05	dWE(1).Potential/dt < 1E-06 V/s
116.76	0.000894165	112.3	1124	-1.01737e-05	dWE(1).Potential/dt < 1E-06 V/s
116.86	0.000894165	112.4	1125	2.54329e-05
116.96	0.000891113	112.5	1126	-6.61199e-05	dWE(1).Potential/dt < 1E-06 V/s
117.06	0.000897217	112.6	1127	0.000147499
117.16	0.000891113	112.7	1128	-0.000193277	dWE(1).Potential/dt < 1E-06 V/s
117.26	0.000900269	112.8	1129	0.000259398
117.36	0.000891113	112.9	1130	-0.000295002	dWE(1).Potential/dt < 1E-06 V/s
117.46	0.000891113	113	1131	0.000137328
117.56	0.000897217	113.1	1132	8.1379e-05
117.66	0.000894165	113.2	1133	-0.000127157	dWE(1).Potential/dt < 1E-06 V/s
117.76	0.000891113	113.3	1134	2.71636e-09	dWE(1).Potential/dt < 1E-06 V/s
117.86	0.000891113	113.4	1135	2.54292e-05
117.96	0.000894165	113.5	1136	4.57749e-05
118.06	0.000891113	113.6	1137	-9.15495e-05	dWE(1).Potential/dt < 1E-06 V/s
118.16	0.000888062	113.7	1138	-1.01751e-05	dWE(1).Potential/dt < 1E-06 V/s
118.26	0.000888062	113.8	1139	2.54333e-05
118.36	0.000888062	113.9	1140	-1.0172e-05	dWE(1).Potential/dt < 1E-06 V/s
118.46	0.000888062	114	1141	5.82077e-10	dWE(1).Potential/dt < 1E-06 V/s
118.56	0.00088501	114.1	1142	-5.59487e-05	dWE(1).Potential/dt < 1E-06 V/s
118.66	0.00088501	114.2	1143	3.56035e-05
118.76	0.000881958	114.3	1144	-6.61218e-05	dWE(1).Potential/dt < 1E-06 V/s
118.86	0.000881958	114.4	1145	3.56029e-05
118.96	0.000891113	114.5	1146	0.000157675
119.06	0.000878906	114.6	1147	-0.00033061	dWE(1).Potential/dt < 1E-06 V/s
119.16	0.000875854	114.7	1148	0.000116988
119.26	0.000875854	114.8	1149	-5.08852e-06	dWE(1).Potential/dt < 1E-06 V/s
119.36	0.000881958	114.9	1150	0.000101724
119.46	0.000869751	115	1151	-0.000295003	dWE(1).Potential/dt < 1E-06 V/s
119.56	0.000878906	115.1	1152	0.000330607
119.66	0.00088501	115.2	1153	-3.5602e-05	dWE(1).Potential/dt < 1E-06 V/s
119.76	0.000878906	115.3	1154	-0.00015259	dWE(1).Potential/dt < 1E-06 V/s
119.86	0.000872803	115.4	1155	-2.03428e-05	dWE(1).Potential/dt < 1E-06 V/s
119.96	0.000875854	115.5	1156	0.000106812
120.06	0.000881958	115.6	1157	5.59465e-05
120.16	0.000875854	115.7	1158	-0.000172932	dWE(1).Potential/dt < 1E-06 V/s
120.26	0.000872803	115.8	1159	3.56026e-05
120.36	0.000869751	115.9	1160	-4.06886e-05	dWE(1).Potential/dt < 1E-06 V/s
120.46	0.000866699	116	1161	-3.05183e-05	dWE(1).Potential/dt < 1E-06 V/s
120.56	0.000869751	116.1	1162	8.13812e-05
120.66	0.000872803	116.2	1163	1.01724e-05
120.76	0.000866699	116.3	1164	-0.000137329	dWE(1).Potential/dt < 1E-06 V/s
120.86	0.000872803	116.4	1165	0.000193279
120.96	0.000863647	116.5	1166	-0.0002594	dWE(1).Potential/dt < 1E-06 V/s
121.06	0.000866699	116.6	1167	0.000183105
121.16	0.000869751	116.7	1168	-1.01718e-05	dWE(1).Potential/dt < 1E-06 V/s
121.26	0.000866699	116.8	1169	-8.1381e-05	dWE(1).Potential/dt < 1E-06 V/s
121.36	0.000860596	116.9	1170	-6.61199e-05	dWE(1).Potential/dt < 1E-06 V/s
121.46	0.000866699	117	1171	0.000172932
121.56	0.000863647	117.1	1172	-0.000147501	dWE(1).Potential/dt < 1E-06 V/s
121.66	0.000863647	117.2	1173	5.59481e-05
121.76	0.000863647	117.3	1174	-1.0173e-05	dWE(1).Potential/dt < 1E-06 V/s
121.86	0.000860596	117.4	1175	-5.59481e-05	dWE(1).Potential/dt < 1E-06 V/s
121.96	0.000857544	117.5	1176	-2.03451e-05	dWE(1).Potential/dt < 1E-06 V/s
122.06	0.000860596	117.6	1177	8.13802e-05
122.16	0.000857544	117.7	1178	-0.000101725	dWE(1).Potential/dt < 1E-06 V/s
122.26	0.000857544	117.8	1179	4.57759e-05
122.36	0.000863647	117.9	1180	0.000101724
122.46	0.000860596	118	1181	-0.000127155	dWE(1).Potential/dt < 1E-06 V/s
122.56	0.000857544	118.1	1182	-1.94026e-10	dWE(1).Potential/dt < 1E-06 V/s
122.66	0.000857544	118.2	1183	2.5431e-05
122.76	0.00085144	118.3	1184	-0.000122071	dWE(1).Potential/dt < 1E-06 V/s
122.86	0.000860596	118.4	1185	0.000239057
122.96	0.000854492	118.5	1186	-0.000239055	dWE(1).Potential/dt < 1E-06 V/s
123.06	0.00085144	118.6	1187	4.57763e-05
123.16	0.000854492	118.7	1188	7.12086e-05
123.26	0.000854492	118.8	1189	-4.57769e-05	dWE(1).Potential/dt < 1E-06 V/s
123.36	0.00085144	118.9	1190	-4.57767e-05	dWE(1).Potential/dt < 1E-06 V/s
123.46	0.000845337	119	1191	-7.62925e-05	dWE(1).Potential/dt < 1E-06 V/s
123.56	0.000854492	119.1	1192	0.000228881
123.66	0.00085144	119.2	1193	-0.000183106	dWE(1).Potential/dt < 1E-06 V/s
123.76	0.000857544	119.3	1194	0.000178021
123.86	0.000848389	119.4	1195	-0.000249229	dWE(1).Potential/dt < 1E-06 V/s
123.96	0.00085144	119.5	1196	0.000183106
124.06	0.000854492	119.6	1197	-1.01718e-05	dWE(1).Potential/dt < 1E-06 V/s
124.16	0.00085144	119.7	1198	-8.1381e-05	dWE(1).Potential/dt < 1E-06 V/s
124.26	0.000845337	119.8	1199	-6.61199e-05	dWE(1).Potential/dt < 1E-06 V/s
124.36	0.000848389	119.9	1200	0.000116983