File: data/20200212/OCP_p31_1.txt
Time (s)	WE(1).Potential (V)	Corrected time (s)	Index	dWE(1).Potential/dt (V/s)	Cutoffs	OCP value (V)
1.54475	0.0257416	0	1	0	dWE(1).Potential/dt < 1E-06 V/s	0.0250542
1.64475	0.0257355	0.1	2	-6.10389e-05	dWE(1).Potential/dt < 1E-06 V/s
1.74475	0.0257324	0.2	3	-1.52364e-05	dWE(1).Potential/dt < 1E-06 V/s
1.84475	0.0257355	0.3	4	7.1153e-05
1.94475	0.0257385	0.4	5	1.02383e-05
2.04475	0.0257294	0.5	6	-0.000193324	dWE(1).Potential/dt < 1E-06 V/s
2.14475	0.0257324	0.6	7	0.000172959
2.24475	0.0257324	0.7	8	-6.61487e-05	dWE(1).Potential/dt < 1E-06 V/s
2.34475	0.0257385	0.8	9	0.000122078
2.44475	0.0257172	0.9	10	-0.000462836	dWE(1).Potential/dt < 1E-06 V/s
2.54475	0.0257172	1	11	0.000269556
2.64475	0.0257141	1.1	12	-0.000127194	dWE(1).Potential/dt < 1E-06 V/s
2.74475	0.0257111	1.2	13	-2.03215e-05	dWE(1).Potential/dt < 1E-06 V/s
2.84475	0.0257202	1.3	14	0.000193262
2.94475	0.025708	1.4	15	-0.000340727	dWE(1).Potential/dt < 1E-06 V/s
3.04475	0.0257141	1.5	16	0.000284786
3.14475	0.0257141	1.6	17	-0.000111901	dWE(1).Potential/dt < 1E-06 V/s
3.24475	0.0257141	1.7	18	2.03277e-05
3.34475	0.0257111	1.8	19	-5.59414e-05	dWE(1).Potential/dt < 1E-06 V/s
3.44475	0.0257111	1.9	20	3.56013e-05
3.54475	0.0256958	2	21	-0.000289914	dWE(1).Potential/dt < 1E-06 V/s
3.64475	0.0256989	2.1	22	0.000233948
3.74475	0.025705	2.2	23	2.54313e-05
3.84475	0.0256866	2.3	24	-0.000396694	dWE(1).Potential/dt < 1E-06 V/s
3.94475	0.0256989	2.4	25	0.000457701
4.04475	0.0256927	2.5	26	-0.000315302	dWE(1).Potential/dt < 1E-06 V/s
4.14475	0.0256958	2.6	27	0.00016783
4.24475	0.0256897	2.7	28	-0.000167849	dWE(1).Potential/dt < 1E-06 V/s
4.34475	0.0256866	2.8	29	2.54686e-05
4.44475	0.0256805	2.9	30	-9.66837e-05	dWE(1).Potential/dt < 1E-06 V/s
4.54475	0.0256805	3	31	6.10513e-05
4.64475	0.0256836	3.1	32	3.55827e-05
4.74475	0.0256744	3.2	33	-0.00020345	dWE(1).Potential/dt < 1E-06 V/s
4.84475	0.0256744	3.3	34	0.000116999
4.94475	0.0256714	3.4	35	-8.64391e-05	dWE(1).Potential/dt < 1E-06 V/s
5.04475	0.0256744	3.5	36	9.14993e-05
5.14475	0.0256653	3.6	37	-0.000213577	dWE(1).Potential/dt < 1E-06 V/s
5.24475	0.0256653	3.7	38	0.000116968
5.34475	0.0256683	3.8	39	2.54127e-05
5.44475	0.0256622	3.9	40	-0.000147472	dWE(1).Potential/dt < 1E-06 V/s
5.54475	0.0256683	4	41	0.000193243
5.64475	0.0256683	4.1	42	-9.15552e-05	dWE(1).Potential/dt < 1E-06 V/s
5.74475	0.0256622	4.2	43	-9.15304e-05	dWE(1).Potential/dt < 1E-06 V/s
5.84475	0.0256653	4.3	44	0.000127144
5.94475	0.02565	4.4	45	-0.000335686	dWE(1).Potential/dt < 1E-06 V/s
6.04475	0.0256622	4.5	46	0.000412005
6.14475	0.02565	4.6	47	-0.000417083	dWE(1).Potential/dt < 1E-06 V/s
6.24475	0.0256439	4.7	48	7.12027e-05
6.34475	0.025647	4.8	49	8.65136e-05
6.44475	0.0256561	4.9	50	0.000111883
6.54475	0.025647	5	51	-0.000264489	dWE(1).Potential/dt < 1E-06 V/s
6.64475	0.02565	5.1	52	0.00019328
6.74475	0.025647	5.2	53	-0.000122047	dWE(1).Potential/dt < 1E-06 V/s
6.84475	0.025647	5.3	54	4.57838e-05
6.94475	0.0256409	5.4	55	-0.000122065	dWE(1).Potential/dt < 1E-06 V/s
7.04475	0.0256348	5.5	56	-4.07174e-05	dWE(1).Potential/dt < 1E-06 V/s
7.14475	0.0256348	5.6	57	5.0875e-05
7.24475	0.0256348	5.7	58	-2.03463e-05	dWE(1).Potential/dt < 1E-06 V/s
7.34475	0.0256317	5.8	59	-5.5929e-05	dWE(1).Potential/dt < 1E-06 V/s
7.44475	0.0256348	5.9	60	9.15428e-05
7.54475	0.0256226	6	61	-0.000269587	dWE(1).Potential/dt < 1E-06 V/s
7.64475	0.0256348	6.1	62	0.000376391
7.74475	0.0256317	6.2	63	-0.000239039	dWE(1).Potential/dt < 1E-06 V/s
7.84475	0.0256287	6.3	64	2.03277e-05
7.94475	0.0256226	6.4	65	-8.64516e-05	dWE(1).Potential/dt < 1E-06 V/s
8.04475	0.0256226	6.5	66	6.10078e-05
8.14475	0.0256256	6.6	67	3.562e-05
8.24475	0.0256195	6.7	68	-0.000147534	dWE(1).Potential/dt < 1E-06 V/s
8.34475	0.0256195	6.8	69	8.13976e-05
8.44475	0.0256195	6.9	70	-2.03463e-05	dWE(1).Potential/dt < 1E-06 V/s
8.54475	0.0256134	7	71	-0.000111908	dWE(1).Potential/dt < 1E-06 V/s
8.64475	0.0256104	7.1	72	1.52985e-05
8.74475	0.0256073	7.2	73	-4.07547e-05	dWE(1).Potential/dt < 1E-06 V/s
8.84475	0.0256104	7.3	74	8.14162e-05
8.94475	0.0256073	7.4	75	-0.000101781	dWE(1).Potential/dt < 1E-06 V/s
9.04475	0.0256073	7.5	76	4.57838e-05
9.14475	0.0256165	7.6	77	0.000157698
9.24475	0.0256042	7.7	78	-0.000330619	dWE(1).Potential/dt < 1E-06 V/s
9.34475	0.0256042	7.8	79	0.00017294
9.44475	0.0256042	7.9	80	-4.06926e-05	dWE(1).Potential/dt < 1E-06 V/s
9.54475	0.0256042	8	81	0	dWE(1).Potential/dt < 1E-06 V/s
9.64475	0.0256042	8.1	82	0	dWE(1).Potential/dt < 1E-06 V/s
9.74475	0.0256012	8.2	83	-5.5929e-05	dWE(1).Potential/dt < 1E-06 V/s
9.84475	0.0256042	8.3	84	9.15428e-05
9.94475	0.025592	8.4	85	-0.000269587	dWE(1).Potential/dt < 1E-06 V/s
10.0447	0.025592	8.5	86	0.000152575
10.1447	0.0255951	8.6	87	1.52737e-05
10.2447	0.025589	8.7	88	-0.000147534	dWE(1).Potential/dt < 1E-06 V/s
10.3447	0.0255981	8.8	89	0.000249234
10.4447	0.025589	8.9	90	-0.000294975	dWE(1).Potential/dt < 1E-06 V/s
10.5447	0.0255951	9	91	0.000249222
10.6447	0.025589	9.1	92	-0.000213652	dWE(1).Potential/dt < 1E-06 V/s
10.7447	0.025589	9.2	93	9.15676e-05
10.8447	0.025592	9.3	94	3.55827e-05
10.9447	0.0255829	9.4	95	-0.00020345	dWE(1).Potential/dt < 1E-06 V/s
11.0447	0.0255859	9.5	96	0.000172978
11.1447	0.0255798	9.6	97	-0.000178032	dWE(1).Potential/dt < 1E-06 V/s
11.2447	0.0255798	9.7	98	8.13665e-05
11.3447	0.0255829	9.8	99	3.55765e-05
11.4447	0.0255859	9.9	100	2.04084e-05
11.5447	0.0255798	10	101	-0.000137345	dWE(1).Potential/dt < 1E-06 V/s
11.6447	0.0255798	10.1	102	8.13665e-05
11.7447	0.0255798	10.2	103	-2.03525e-05	dWE(1).Potential/dt < 1E-06 V/s
11.8447	0.0255768	10.3	104	-5.59849e-05	dWE(1).Potential/dt < 1E-06 V/s
11.9447	0.0255707	10.4	105	-7.62505e-05	dWE(1).Potential/dt < 1E-06 V/s
12.0447	0.0255768	10.5	106	0.000172897
12.1447	0.0255737	10.6	107	-0.000147484	dWE(1).Potential/dt < 1E-06 V/s
12.2447	0.0255768	10.7	108	0.00011187
12.3447	0.0255737	10.8	109	-0.000101713	dWE(1).Potential/dt < 1E-06 V/s
12.4447	0.0255768	10.9	110	0.0001017
12.5447	0.0255707	11	111	-0.000157642	dWE(1).Potential/dt < 1E-06 V/s
12.6447	0.0255707	11.1	112	8.13852e-05
12.7447	0.0255707	11.2	113	-2.03277e-05	dWE(1).Potential/dt < 1E-06 V/s
12.8447	0.0255676	11.3	114	-5.59663e-05	dWE(1).Potential/dt < 1E-06 V/s
12.9447	0.0255615	11.4	115	-7.62815e-05	dWE(1).Potential/dt < 1E-06 V/s
13.0447	0.0255707	11.5	116	0.000228894
13.1447	0.0255615	11.6	117	-0.000295037	dWE(1).Potential/dt < 1E-06 V/s
13.2447	0.0255585	11.7	118	8.13976e-05
13.3447	0.0255737	11.8	119	0.000284823
13.4447	0.0255615	11.9	120	-0.000412005	dWE(1).Potential/dt < 1E-06 V/s
13.5447	0.0255615	12	121	0.000193268
13.6447	0.0255585	12.1	122	-9.6634e-05	dWE(1).Potential/dt < 1E-06 V/s
13.7447	0.0255585	12.2	123	3.56013e-05
13.8447	0.0255585	12.3	124	-1.017e-05	dWE(1).Potential/dt < 1E-06 V/s
13.9447	0.0255615	12.4	125	5.5929e-05
14.0447	0.0255585	12.5	126	-9.15428e-05	dWE(1).Potential/dt < 1E-06 V/s
14.1447	0.0255524	12.6	127	-6.61363e-05	dWE(1).Potential/dt < 1E-06 V/s
14.2447	0.0255554	12.7	128	0.000117036
14.3447	0.0255493	12.8	129	-0.000167862	dWE(1).Potential/dt < 1E-06 V/s
14.4447	0.0255493	12.9	130	8.13665e-05
14.5447	0.0255493	13	131	-2.03525e-05	dWE(1).Potential/dt < 1E-06 V/s
14.6447	0.0255524	13.1	132	5.59228e-05
14.7447	0.0255463	13.2	133	-0.000147478	dWE(1).Potential/dt < 1E-06 V/s
14.8447	0.0255463	13.3	134	8.13541e-05
14.9447	0.0255493	13.4	135	3.562e-05
15.0447	0.0255463	13.5	136	-9.16049e-05	dWE(1).Potential/dt < 1E-06 V/s
15.1447	0.0255493	13.6	137	0.000101762
15.2447	0.0255524	13.7	138	1.01266e-05
15.3447	0.0255402	13.8	139	-0.00024916	dWE(1).Potential/dt < 1E-06 V/s
15.4447	0.0255463	13.9	140	0.00026444
15.5447	0.0255432	14	141	-0.00016783	dWE(1).Potential/dt < 1E-06 V/s
15.6447	0.0255402	14.1	142	1.24176e-08	dWE(1).Potential/dt < 1E-06 V/s
15.7447	0.0255432	14.2	143	8.13727e-05
15.8447	0.0255371	14.3	144	-0.000157679	dWE(1).Potential/dt < 1E-06 V/s
15.9447	0.0255402	14.4	145	0.000137376
16.0447	0.0255402	14.5	146	-5.59538e-05	dWE(1).Potential/dt < 1E-06 V/s
16.1447	0.0255341	14.6	147	-0.000101719	dWE(1).Potential/dt < 1E-06 V/s
16.2447	0.0255371	14.7	148	0.000127119
16.3447	0.025528	14.8	149	-0.000223753	dWE(1).Potential/dt < 1E-06 V/s
16.4447	0.025528	14.9	150	0.000116968
16.5447	0.0255371	15	151	0.00013732
16.6447	0.025528	15.1	152	-0.000274628	dWE(1).Potential/dt < 1E-06 V/s
16.7447	0.025531	15.2	153	0.000193243
16.8447	0.025528	15.3	154	-0.000122059	dWE(1).Potential/dt < 1E-06 V/s
16.9447	0.0255341	15.4	155	0.000157679
17.0447	0.025528	15.5	156	-0.000193305	dWE(1).Potential/dt < 1E-06 V/s
17.1447	0.0255219	15.6	157	-2.03401e-05	dWE(1).Potential/dt < 1E-06 V/s
17.2447	0.0255341	15.7	158	0.000274697
17.3447	0.0255188	15.8	159	-0.00044254	dWE(1).Potential/dt < 1E-06 V/s
17.4447	0.0255249	15.9	160	0.000330613
17.5447	0.025528	16	161	-6.61177e-05	dWE(1).Potential/dt < 1E-06 V/s
17.6447	0.0255188	16.1	162	-0.000183092	dWE(1).Potential/dt < 1E-06 V/s
17.7447	0.0255157	16.2	163	6.0983e-05
17.8447	0.025528	16.3	164	0.000228907
17.9447	0.0255249	16.4	165	-0.000208523	dWE(1).Potential/dt < 1E-06 V/s
18.0447	0.0255249	16.5	166	7.63063e-05
18.1447	0.0255219	16.6	167	-6.61363e-05	dWE(1).Potential/dt < 1E-06 V/s
18.2447	0.0255157	16.7	168	-7.62815e-05	dWE(1).Potential/dt < 1E-06 V/s
18.3447	0.0255127	16.8	169	5.07881e-06
18.4447	0.0255157	16.9	170	7.11841e-05
18.5447	0.0255127	17	171	-0.000101713	dWE(1).Potential/dt < 1E-06 V/s
18.6447	0.0255157	17.1	172	0.0001017
18.7447	0.0255188	17.2	173	1.01949e-05
18.8447	0.0255157	17.3	174	-8.14348e-05	dWE(1).Potential/dt < 1E-06 V/s
18.9447	0.0255188	17.4	175	0.000101762
19.0447	0.0255127	17.5	176	-0.00015771	dWE(1).Potential/dt < 1E-06 V/s
19.1447	0.0255096	17.6	177	2.54686e-05
19.2447	0.0255066	17.7	178	-4.07112e-05	dWE(1).Potential/dt < 1E-06 V/s
19.3447	0.0255096	17.8	179	8.14348e-05
19.4447	0.0255096	17.9	180	-4.57838e-05	dWE(1).Potential/dt < 1E-06 V/s
19.5447	0.0255096	18	181	1.01887e-05
19.6447	0.0255035	18.1	182	-0.000111895	dWE(1).Potential/dt < 1E-06 V/s
19.7447	0.0254974	18.2	183	-4.07174e-05	dWE(1).Potential/dt < 1E-06 V/s
19.8447	0.0255066	18.3	184	0.000218712
19.9447	0.0254974	18.4	185	-0.000294975	dWE(1).Potential/dt < 1E-06 V/s
20.0447	0.0255005	18.5	186	0.000193243
20.1447	0.0254913	18.6	187	-0.000233967	dWE(1).Potential/dt < 1E-06 V/s
20.2447	0.0254913	18.7	188	0.000116999
20.3447	0.0254944	18.8	189	2.54686e-05
20.4447	0.0254913	18.9	190	-9.15862e-05	dWE(1).Potential/dt < 1E-06 V/s
20.5447	0.0255005	19	191	0.000213639
20.6447	0.0254944	19.1	192	-0.000228869	dWE(1).Potential/dt < 1E-06 V/s
20.7447	0.0254883	19.2	193	-1.01762e-05	dWE(1).Potential/dt < 1E-06 V/s
20.8447	0.0254944	19.3	194	0.000162758
20.9447	0.0254852	19.4	195	-0.000259417	dWE(1).Potential/dt < 1E-06 V/s
21.0447	0.0254913	19.5	196	0.000239058
21.1447	0.0254883	19.6	197	-0.000157642	dWE(1).Potential/dt < 1E-06 V/s
21.2447	0.0254913	19.7	198	0.000111846
21.3447	0.0254913	19.8	199	-4.57403e-05	dWE(1).Potential/dt < 1E-06 V/s
21.4447	0.0254944	19.9	200	6.61549e-05
21.5447	0.0254913	20	201	-9.15862e-05	dWE(1).Potential/dt < 1E-06 V/s
21.6447	0.0254944	20.1	202	0.000101781
21.7447	0.0254883	20.2	203	-0.000157691	dWE(1).Potential/dt < 1E-06 V/s
21.8447	0.0254791	20.3	204	-8.64702e-05	dWE(1).Potential/dt < 1E-06 V/s
21.9447	0.0254883	20.4	205	0.000254326
22.0447	0.0254822	20.5	206	-0.000249253	dWE(1).Potential/dt < 1E-06 V/s
22.1447	0.0254791	20.6	207	4.58086e-05
22.2447	0.0254852	20.7	208	0.000127126
22.3447	0.0254852	20.8	209	-8.13852e-05	dWE(1).Potential/dt < 1E-06 V/s
22.4447	0.0254822	20.9	210	-3.56013e-05	dWE(1).Potential/dt < 1E-06 V/s
22.5447	0.0254791	21	211	-2.03277e-05	dWE(1).Potential/dt < 1E-06 V/s
22.6447	0.0254791	21.1	212	2.54437e-05
22.7447	0.02547	21.2	213	-0.000178044	dWE(1).Potential/dt < 1E-06 V/s
22.8447	0.0254761	21.3	214	0.000218712
22.9447	0.0254822	21.4	215	1.01949e-05
23.0447	0.0254822	21.5	216	-5.0875e-05	dWE(1).Potential/dt < 1E-06 V/s
23.1447	0.0254761	21.6	217	-9.15614e-05	dWE(1).Potential/dt < 1E-06 V/s
23.2447	0.025473	21.7	218	1.52985e-05
23.3447	0.025473	21.8	219	1.5224e-05
23.4447	0.0254761	21.9	220	4.57528e-05
23.5447	0.0254761	22	221	-3.55703e-05	dWE(1).Potential/dt < 1E-06 V/s
23.6447	0.025473	22.1	222	-4.57528e-05	dWE(1).Potential/dt < 1E-06 V/s
23.7447	0.0254608	22.2	223	-0.000188245	dWE(1).Potential/dt < 1E-06 V/s
23.8447	0.0254761	22.3	224	0.000412023
23.9447	0.025473	22.4	225	-0.000274635	dWE(1).Potential/dt < 1E-06 V/s
24.0447	0.0254791	22.5	226	0.000198341
24.1447	0.02547	22.6	227	-0.00024924	dWE(1).Potential/dt < 1E-06 V/s
24.2447	0.0254669	22.7	228	7.12213e-05
24.3447	0.0254669	22.8	229	5.07881e-06
24.4447	0.025473	22.9	230	0.000101738
24.5447	0.0254669	23	231	-0.000183135	dWE(1).Potential/dt < 1E-06 V/s
24.6447	0.0254639	23.1	232	3.56386e-05
24.7447	0.0254578	23.2	233	-9.66402e-05	dWE(1).Potential/dt < 1E-06 V/s
24.8447	0.0254608	23.3	234	0.000116949
24.9447	0.0254578	23.4	235	-0.000111846	dWE(1).Potential/dt < 1E-06 V/s
25.0447	0.0254639	23.5	236	0.000157648
25.1447	0.0254608	23.6	237	-0.000137333	dWE(1).Potential/dt < 1E-06 V/s
25.2447	0.0254547	23.7	238	-5.59352e-05	dWE(1).Potential/dt < 1E-06 V/s
25.3447	0.0254547	23.8	239	6.10078e-05
25.4447	0.0254578	23.9	240	3.562e-05
25.5447	0.0254547	24	241	-9.16049e-05	dWE(1).Potential/dt < 1E-06 V/s
25.6447	0.0254547	24.1	242	4.57838e-05
25.7447	0.0254547	24.2	243	-1.01887e-05	dWE(1).Potential/dt < 1E-06 V/s
25.8447	0.0254578	24.3	244	5.59663e-05
25.9447	0.0254578	24.4	245	-3.56262e-05	dWE(1).Potential/dt < 1E-06 V/s
26.0447	0.0254486	24.5	246	-0.000157667	dWE(1).Potential/dt < 1E-06 V/s
26.1447	0.0254517	24.6	247	0.000162764
26.2447	0.0254547	24.7	248	-1.01887e-05	dWE(1).Potential/dt < 1E-06 V/s
26.3447	0.0254578	24.8	249	3.0535e-05
26.4447	0.0254578	24.9	250	-2.54561e-05	dWE(1).Potential/dt < 1E-06 V/s
26.5447	0.0254517	25	251	-0.000101738	dWE(1).Potential/dt < 1E-06 V/s
26.6447	0.0254425	25.1	252	-9.66154e-05	dWE(1).Potential/dt < 1E-06 V/s
26.7447	0.0254486	25.2	253	0.000198353
26.8447	0.0254486	25.3	254	-0.0001017	dWE(1).Potential/dt < 1E-06 V/s
26.9447	0.0254425	25.4	255	-9.1549e-05	dWE(1).Potential/dt < 1E-06 V/s
27.0447	0.0254395	25.5	256	1.52116e-05
27.1447	0.0254486	25.6	257	0.000183148
27.2447	0.0254364	25.7	258	-0.000340796	dWE(1).Potential/dt < 1E-06 V/s
27.3447	0.0254456	25.8	259	0.000340777
27.4447	0.0254425	25.9	260	-0.000203413	dWE(1).Potential/dt < 1E-06 V/s
27.5447	0.0254425	26	261	6.60866e-05
27.6447	0.0254395	26.1	262	-6.61549e-05	dWE(1).Potential/dt < 1E-06 V/s
27.7447	0.0254364	26.2	263	-2.03215e-05	dWE(1).Potential/dt < 1E-06 V/s
27.8447	0.0254364	26.3	264	2.54251e-05
27.9447	0.0254395	26.4	265	4.5759e-05
28.0447	0.0254364	26.5	266	-9.15428e-05	dWE(1).Potential/dt < 1E-06 V/s
28.1447	0.0254364	26.6	267	4.57714e-05
28.2447	0.0254333	26.7	268	-6.60991e-05	dWE(1).Potential/dt < 1E-06 V/s
28.3447	0.0254333	26.8	269	3.56138e-05
28.4447	0.0254303	26.9	270	-6.61363e-05	dWE(1).Potential/dt < 1E-06 V/s
28.5447	0.0254242	27	271	-7.62815e-05	dWE(1).Potential/dt < 1E-06 V/s
28.6447	0.0254364	27.1	272	0.000284823
28.7447	0.0254333	27.2	273	-0.000218693	dWE(1).Potential/dt < 1E-06 V/s
28.8447	0.0254333	27.3	274	7.63063e-05
28.9447	0.0254333	27.4	275	-1.01576e-05	dWE(1).Potential/dt < 1E-06 V/s
29.0447	0.0254303	27.5	276	-5.59663e-05	dWE(1).Potential/dt < 1E-06 V/s
29.1447	0.0254272	27.6	277	-2.03028e-05	dWE(1).Potential/dt < 1E-06 V/s
29.2447	0.0254272	27.7	278	2.53941e-05
29.3447	0.0254272	27.8	279	-1.01762e-05	dWE(1).Potential/dt < 1E-06 V/s
29.4447	0.0254211	27.9	280	-0.000111914	dWE(1).Potential/dt < 1E-06 V/s
29.5447	0.0254242	28	281	0.00012715
29.6447	0.0254272	28.1	282	1.86264e-08	dWE(1).Potential/dt < 1E-06 V/s
29.7447	0.0254303	28.2	283	3.04729e-05
29.8447	0.0254211	28.3	284	-0.000193231	dWE(1).Potential/dt < 1E-06 V/s
29.9447	0.0254181	28.4	285	6.10389e-05
30.0447	0.025415	28.5	286	-5.08812e-05	dWE(1).Potential/dt < 1E-06 V/s
30.1447	0.0254272	28.6	287	0.000249272
30.2447	0.0254242	28.7	288	-0.000208604	dWE(1).Potential/dt < 1E-06 V/s
30.3447	0.0254211	28.8	289	2.03711e-05
30.4447	0.0254211	28.9	290	2.54251e-05
30.5447	0.0254242	29	291	4.5759e-05
30.6447	0.0254211	29.1	292	-9.15428e-05	dWE(1).Potential/dt < 1E-06 V/s
30.7447	0.025412	29.2	293	-0.000122065	dWE(1).Potential/dt < 1E-06 V/s
30.8447	0.0254242	29.3	294	0.000320387
30.9447	0.025412	29.4	295	-0.000396694	dWE(1).Potential/dt < 1E-06 V/s
31.0447	0.0254211	29.5	296	0.000350916
31.1447	0.025415	29.6	297	-0.000259392	dWE(1).Potential/dt < 1E-06 V/s
31.2447	0.025412	29.7	298	4.58148e-05
31.3447	0.025415	29.8	299	7.1153e-05
31.4447	0.025415	29.9	300	-4.57403e-05	dWE(1).Potential/dt < 1E-06 V/s
31.5447	0.0254059	30	301	-0.00015766	dWE(1).Potential/dt < 1E-06 V/s
31.6447	0.025412	30.1	302	0.000218706
31.7447	0.0254089	30.2	303	-0.000157723	dWE(1).Potential/dt < 1E-06 V/s
31.8447	0.0254089	30.3	304	5.59538e-05
31.9447	0.0254089	30.4	305	-1.01887e-05	dWE(1).Potential/dt < 1E-06 V/s
32.0447	0.0254028	30.5	306	-0.00011187	dWE(1).Potential/dt < 1E-06 V/s
32.1447	0.0254059	30.6	307	0.000127144
32.2447	0.0253967	30.7	308	-0.000223778	dWE(1).Potential/dt < 1E-06 V/s
32.3447	0.0254028	30.8	309	0.000228869
32.4447	0.0254059	30.9	310	-4.57714e-05	dWE(1).Potential/dt < 1E-06 V/s
32.5447	0.0254028	31	311	-7.11841e-05	dWE(1).Potential/dt < 1E-06 V/s
32.6447	0.0254059	31.1	312	0.000101713
32.7447	0.0254059	31.2	313	-4.57714e-05	dWE(1).Potential/dt < 1E-06 V/s
[...]
106.545	0.0250763	105	1051	0.000188214
106.645	0.0250854	105.1	1052	9.15179e-05
106.745	0.0250885	105.2	1053	-4.06926e-05	dWE(1).Potential/dt < 1E-06 V/s
106.845	0.0250824	105.3	1054	-0.000116955	dWE(1).Potential/dt < 1E-06 V/s
106.945	0.0250763	105.4	1055	-3.05225e-05	dWE(1).Potential/dt < 1E-06 V/s
107.045	0.0250793	105.5	1056	0.000106779
107.145	0.0250793	105.6	1057	-5.59166e-05	dWE(1).Potential/dt < 1E-06 V/s
107.245	0.0250763	105.7	1058	-4.57528e-05	dWE(1).Potential/dt < 1E-06 V/s
107.345	0.0250763	105.8	1059	3.55703e-05
107.445	0.0250641	105.9	1060	-0.000233992	dWE(1).Potential/dt < 1E-06 V/s
107.545	0.0250793	106	1061	0.000422193
107.645	0.0250763	106.1	1062	-0.000274635	dWE(1).Potential/dt < 1E-06 V/s
107.745	0.0250763	106.2	1063	8.64329e-05
107.845	0.0250763	106.3	1064	-1.01762e-05	dWE(1).Potential/dt < 1E-06 V/s
107.945	0.0250824	106.4	1065	0.000111901
108.045	0.0250763	106.5	1066	-0.000183092	dWE(1).Potential/dt < 1E-06 V/s
108.145	0.0250732	106.6	1067	3.55579e-05
108.245	0.0250793	106.7	1068	0.000127169
108.345	0.0250793	106.8	1069	-8.13665e-05	dWE(1).Potential/dt < 1E-06 V/s
108.445	0.0250671	106.9	1070	-0.000203413	dWE(1).Potential/dt < 1E-06 V/s
108.545	0.0250793	107	1071	0.000366177
108.645	0.0250732	107.1	1072	-0.000294987	dWE(1).Potential/dt < 1E-06 V/s
108.745	0.0250702	107.2	1073	5.59414e-05
108.845	0.0250732	107.3	1074	7.11841e-05
108.945	0.025061	107.4	1075	-0.00026955	dWE(1).Potential/dt < 1E-06 V/s
109.045	0.0250763	107.5	1076	0.000432307
109.145	0.0250732	107.6	1077	-0.00027469	dWE(1).Potential/dt < 1E-06 V/s
109.245	0.0250671	107.7	1078	-2.53878e-05	dWE(1).Potential/dt < 1E-06 V/s
109.345	0.0250763	107.8	1079	0.000228876
109.445	0.0250671	107.9	1080	-0.000295006	dWE(1).Potential/dt < 1E-06 V/s
109.545	0.0250702	108	1081	0.00019328
109.645	0.0250702	108.1	1082	-6.61177e-05	dWE(1).Potential/dt < 1E-06 V/s
109.745	0.0250671	108.2	1083	-4.5759e-05	dWE(1).Potential/dt < 1E-06 V/s
109.845	0.0250671	108.3	1084	3.56138e-05
109.945	0.0250671	108.4	1085	-1.01576e-05	dWE(1).Potential/dt < 1E-06 V/s
110.045	0.0250671	108.5	1086	1.24176e-08	dWE(1).Potential/dt < 1E-06 V/s
110.145	0.0250641	108.6	1087	-5.59663e-05	dWE(1).Potential/dt < 1E-06 V/s
110.245	0.0250702	108.7	1088	0.000147534
110.345	0.0250702	108.8	1089	-8.13976e-05	dWE(1).Potential/dt < 1E-06 V/s
110.445	0.0250671	108.9	1090	-3.55827e-05	dWE(1).Potential/dt < 1E-06 V/s
110.545	0.0250641	109	1091	-2.03649e-05	dWE(1).Potential/dt < 1E-06 V/s
110.645	0.0250671	109.1	1092	8.14348e-05
110.745	0.0250732	109.2	1093	6.60742e-05
110.845	0.0250671	109.3	1094	-0.000172897	dWE(1).Potential/dt < 1E-06 V/s
110.945	0.025061	109.4	1095	-2.03525e-05	dWE(1).Potential/dt < 1E-06 V/s
111.045	0.025061	109.5	1096	5.08502e-05
111.145	0.0250671	109.6	1097	9.15552e-05
111.245	0.025058	109.7	1098	-0.00023907	dWE(1).Potential/dt < 1E-06 V/s
111.345	0.0250702	109.8	1099	0.000350966
111.445	0.0250641	109.9	1100	-0.000284848	dWE(1).Potential/dt < 1E-06 V/s
111.545	0.025061	110	1101	5.59911e-05
111.645	0.0250641	110.1	1102	7.1153e-05
111.745	0.0250702	110.2	1103	6.61673e-05
111.845	0.025061	110.3	1104	-0.000228888	dWE(1).Potential/dt < 1E-06 V/s
111.945	0.025061	110.4	1105	0.000127138
112.045	0.0250671	110.5	1106	8.13852e-05
112.145	0.0250671	110.6	1107	-7.11841e-05	dWE(1).Potential/dt < 1E-06 V/s
112.245	0.0250549	110.7	1108	-0.000203457	dWE(1).Potential/dt < 1E-06 V/s
112.345	0.0250641	110.8	1109	0.000310255
112.445	0.0250549	110.9	1110	-0.000315321	dWE(1).Potential/dt < 1E-06 V/s
112.545	0.0250641	111	1111	0.000305151
112.645	0.025058	111.1	1112	-0.000249216	dWE(1).Potential/dt < 1E-06 V/s
112.745	0.025058	111.2	1113	0.0001017
112.845	0.0250549	111.3	1114	-7.62877e-05	dWE(1).Potential/dt < 1E-06 V/s
112.945	0.025058	111.4	1115	9.15304e-05
113.045	0.025061	111.5	1116	1.01949e-05
113.145	0.0250519	111.6	1117	-0.000193293	dWE(1).Potential/dt < 1E-06 V/s
113.245	0.0250488	111.7	1118	6.10327e-05
113.345	0.025061	111.8	1119	0.000228925
113.445	0.025061	111.9	1120	-0.000152625	dWE(1).Potential/dt < 1E-06 V/s
113.545	0.025058	112	1121	-1.52923e-05	dWE(1).Potential/dt < 1E-06 V/s
113.645	0.0250549	112.1	1122	-2.03215e-05	dWE(1).Potential/dt < 1E-06 V/s
113.745	0.025061	112.2	1123	0.000137333
113.845	0.025061	112.3	1124	-8.13976e-05	dWE(1).Potential/dt < 1E-06 V/s
113.945	0.025058	112.4	1125	-3.56386e-05	dWE(1).Potential/dt < 1E-06 V/s
114.045	0.0250519	112.5	1126	-7.62505e-05	dWE(1).Potential/dt < 1E-06 V/s
114.145	0.0250641	112.6	1127	0.000284805
114.245	0.025061	112.7	1128	-0.000218662	dWE(1).Potential/dt < 1E-06 V/s
114.345	0.0250549	112.8	1129	-3.5651e-05	dWE(1).Potential/dt < 1E-06 V/s
114.445	0.025058	112.9	1130	0.00011698
114.545	0.025061	113	1131	1.86264e-08	dWE(1).Potential/dt < 1E-06 V/s
114.645	0.0250549	113.1	1132	-0.000137364	dWE(1).Potential/dt < 1E-06 V/s
114.745	0.0250641	113.2	1133	0.000249234
114.845	0.025058	113.3	1134	-0.000239046	dWE(1).Potential/dt < 1E-06 V/s
114.945	0.0250549	113.4	1135	4.57714e-05
115.045	0.025058	113.5	1136	7.11841e-05
115.145	0.0250519	113.6	1137	-0.000157642	dWE(1).Potential/dt < 1E-06 V/s
115.245	0.025058	113.7	1138	0.000193243
115.345	0.0250549	113.8	1139	-0.000147484	dWE(1).Potential/dt < 1E-06 V/s
115.445	0.0250641	113.9	1140	0.000223778
115.545	0.0250671	114	1141	-6.0983e-05	dWE(1).Potential/dt < 1E-06 V/s
115.645	0.025058	114.1	1142	-0.000172978	dWE(1).Potential/dt < 1E-06 V/s
115.745	0.0250549	114.2	1143	6.10513e-05
115.845	0.025061	114.3	1144	0.000116987
115.945	0.025058	114.4	1145	-0.000137376	dWE(1).Potential/dt < 1E-06 V/s
116.045	0.025058	114.5	1146	5.59538e-05
116.145	0.0250458	114.6	1147	-0.000233954	dWE(1).Potential/dt < 1E-06 V/s
116.245	0.025061	114.7	1148	0.000422137
116.345	0.0250671	114.8	1149	-0.000106804	dWE(1).Potential/dt < 1E-06 V/s
116.445	0.025061	114.9	1150	-0.000132229	dWE(1).Potential/dt < 1E-06 V/s
116.545	0.0250549	115	1151	-2.03711e-05	dWE(1).Potential/dt < 1E-06 V/s
116.645	0.0250641	115.1	1152	0.000218712
116.745	0.0250519	115.2	1153	-0.000350904	dWE(1).Potential/dt < 1E-06 V/s
116.845	0.0250549	115.3	1154	0.000228857
116.945	0.025058	115.4	1155	-2.03587e-05	dWE(1).Potential/dt < 1E-06 V/s
117.045	0.0250519	115.5	1156	-0.000137302	dWE(1).Potential/dt < 1E-06 V/s
117.145	0.0250549	115.6	1157	0.000137314
117.245	0.0250488	115.7	1158	-0.000167849	dWE(1).Potential/dt < 1E-06 V/s
117.345	0.025061	115.8	1159	0.000305213
117.445	0.0250519	115.9	1160	-0.000330632	dWE(1).Potential/dt < 1E-06 V/s
117.545	0.0250519	116	1161	0.000147528
117.645	0.0250488	116.1	1162	-8.64826e-05	dWE(1).Potential/dt < 1E-06 V/s
117.745	0.0250549	116.2	1163	0.000147534
117.845	0.025061	116.3	1164	3.05101e-05
117.945	0.025058	116.4	1165	-0.00010686	dWE(1).Potential/dt < 1E-06 V/s
118.045	0.025058	116.5	1166	5.59538e-05
118.145	0.025058	116.6	1167	-1.01887e-05	dWE(1).Potential/dt < 1E-06 V/s
118.245	0.025058	116.7	1168	-1.24176e-08	dWE(1).Potential/dt < 1E-06 V/s
118.345	0.025061	116.8	1169	5.59663e-05
118.445	0.025058	116.9	1170	-9.16049e-05	dWE(1).Potential/dt < 1E-06 V/s
118.545	0.025061	117	1171	0.000101762
118.645	0.0250488	117.1	1172	-0.000269618	dWE(1).Potential/dt < 1E-06 V/s
118.745	0.0250549	117.2	1173	0.000264533
118.845	0.0250549	117.3	1174	-0.000111914	dWE(1).Potential/dt < 1E-06 V/s
118.945	0.0250519	117.4	1175	-3.55827e-05	dWE(1).Potential/dt < 1E-06 V/s
119.045	0.025058	117.5	1176	0.000147472
119.145	0.0250549	117.6	1177	-0.000137314	dWE(1).Potential/dt < 1E-06 V/s
119.245	0.0250549	117.7	1178	5.59414e-05
119.345	0.025058	117.8	1179	4.5759e-05
119.445	0.0250519	117.9	1180	-0.000147472	dWE(1).Potential/dt < 1E-06 V/s
119.545	0.025061	118	1181	0.000249222
119.645	0.0250549	118.1	1182	-0.000239077	dWE(1).Potential/dt < 1E-06 V/s
119.745	0.025058	118.2	1183	0.000157667
119.845	0.0250488	118.3	1184	-0.000223797	dWE(1).Potential/dt < 1E-06 V/s
119.945	0.0250458	118.4	1185	6.10699e-05
120.045	0.0250488	118.5	1186	6.0983e-05
120.145	0.0250549	118.6	1187	6.61673e-05
120.245	0.0250488	118.7	1188	-0.000172959	dWE(1).Potential/dt < 1E-06 V/s
120.345	0.0250549	118.8	1189	0.000203482
120.445	0.0250519	118.9	1190	-0.000147497	dWE(1).Potential/dt < 1E-06 V/s
120.545	0.0250488	119	1191	-1.86264e-08	dWE(1).Potential/dt < 1E-06 V/s
120.645	0.0250519	119.1	1192	8.14348e-05
120.745	0.0250519	119.2	1193	-4.57838e-05	dWE(1).Potential/dt < 1E-06 V/s
120.845	0.0250488	119.3	1194	-4.579e-05	dWE(1).Potential/dt < 1E-06 V/s
120.945	0.0250488	119.4	1195	3.56262e-05
121.045	0.0250519	119.5	1196	4.58086e-05
121.145	0.0250519	119.6	1197	-3.56076e-05	dWE(1).Potential/dt < 1E-06 V/s
121.245	0.0250549	119.7	1198	6.61177e-05
121.345	0.0250397	119.8	1199	-0.000315346	dWE(1).Potential/dt < 1E-06 V/s
121.445	0.0250458	119.9	1200	0.000300097