File: data/20200212/Z_p27_1.txt
Index	Frequency (Hz)	Z' (Ω)	-Z'' (Ω)	Z (Ω)	-Phase (°)	Time (s)
1	1000000	2328.5	3535.47	4233.38	56.6306	140.148
2	794330	3013.57	3799.96	4849.88	51.5837	141.878
3	630960	3916.38	4078.89	5654.67	46.1644	143.273
4	501190	4832.22	4308.61	6474.14	41.7216	144.773
5	398110	5867.01	4420.08	7345.67	36.9936	149.639
6	316230	6743.63	4356.75	8028.56	32.8646	150.964
7	251190	7430.85	4069.99	8472.44	28.7102	155.019
8	199530	8149.27	3904.5	9036.35	25.6001	156.319
9	158490	8807.96	3703.81	9555.02	22.8071	157.729
10	125890	9393.08	3469.42	10013.3	20.2722	159.019
11	100000	9927.75	3225.31	10438.5	17.9979	160.459
12	79433	10402.7	2969.71	10818.3	15.9327	161.769
13	63096	10802.2	2725.33	11140.7	14.1599	163.184
14	50119	11191.9	2480.03	11463.4	12.4944	164.609
15	39811	11503.5	2241.7	11719.9	11.0271	165.919
16	31623	11777.6	2029.47	11951.2	9.77692	167.254
17	25119	12016.3	1853.36	12158.4	8.76805	168.564
18	19953	12238.4	1702.74	12356.3	7.92075	169.899
19	15849	12421.4	1561.66	12519.2	7.1658	171.199
20	12589	12609.4	1436.98	12691	6.50141	172.514
21	10000	12759.3	1364.19	12832	6.10272	174.729
22	7943.3	12920.3	1282.63	12983.8	5.6693	175.959
23	6309.6	13074.6	1218.67	13131.3	5.32508	177.279
24	5011.9	13222	1167.75	13273.5	5.04716	178.629
25	3981.1	13371.9	1128.75	13419.5	4.82501	179.929
26	3162.3	13511.7	1099.3	13556.4	4.65127	181.229
27	2511.9	13650.2	1079.07	13692.8	4.51993	182.559
28	1995.3	13794.3	1067.96	13835.5	4.42705	183.904
29	1584.9	13934.7	1060.34	13975	4.35146	185.079
30	1258.9	14089.9	1065.84	14130.2	4.32593	186.359
31	1000	14230.5	1065.72	14270.3	4.28288	187.689
32	794.33	14382.7	1072.56	14422.7	4.26481	189.124
33	630.96	14531.2	1083.53	14571.6	4.26439	190.424
34	501.19	14691.4	1096.77	14732.2	4.26946	191.754
35	398.11	14852.9	1113.62	14894.6	4.28783	192.934
36	316.23	15011.2	1133.21	15053.9	4.31712	194.289
37	251.19	15172.4	1153.81	15216.2	4.34878	195.669
38	199.53	15341.7	1177.22	15386.8	4.38791	196.904
39	158.49	15516.4	1206.04	15563.2	4.44447	198.274
40	125.89	15684.6	1233.28	15733	4.49593	199.669
41	100	15870.5	1265.62	15920.9	4.55951	201.029
42	79.433	16042.9	1300.45	16095.5	4.63432	202.45
43	63.096	16234.5	1322.19	16288.2	4.6561	203.93
44	50.119	16450.5	1343.4	16505.2	4.66862	222.04
45	39.811	16667.1	1431.29	16728.4	4.90824	231.14
46	31.623	16872.2	1473	16936.3	4.98947	232.77
47	25.119	17090.6	1533.54	17159.3	5.12741	234.35
48	19.953	17304.4	1601.85	17378.4	5.28874	236.27
49	15.849	17503.8	1667.47	17583.1	5.44175	238.22
50	12.589	17746.9	1730.71	17831	5.56998	240.205
51	10	17991.5	1813.89	18082.7	5.75707	242.47
52	7.9433	18228.7	1901.86	18327.7	5.95629	244.79
53	6.3096	18518.2	2014.79	18627.5	6.20939	247.105
54	5.0119	18759.2	2141.62	18881	6.51292	250.435
55	3.9811	19041.2	2260.95	19175	6.77157	252.745
56	3.1623	19341.6	2377.76	19487.2	7.00849	255.19
57	2.5119	19845.2	2583.39	20012.6	7.4169	257.806
58	1.9953	20005.4	2758.66	20194.7	7.85135	260.426
59	1.5849	20311.3	3025.19	20535.4	8.47141	263.126
60	1.2589	20669.2	3469.68	20958.4	9.52924	266.066
61	1	21039	3595.86	21344.1	9.69893	271.181
62	0.79433	21404.8	3944.2	21765.2	10.4406	274.326
63	0.63096	21809.3	4382.97	22245.4	11.3632	277.826
64	0.50119	22168	4908.59	22705	12.4854	281.626
65	0.39811	22593.9	5569.92	23270.3	13.8486	285.846
66	0.31623	22973.7	6471.87	23867.9	15.7329	290.586
67	0.25119	23583.9	7419.76	24723.6	17.4641	295.986
68	0.19953	24171.9	8686.01	25685.1	19.7656	302.261
69	0.15849	24749.3	10143.7	26747.4	22.2868	309.591
70	0.12589	25235.9	12097.8	27985.8	25.6126	318.112
71	0.1	26362.4	14468.7	30071.9	28.7597	328.362