File: data/20200212/Z_p29_1.txt
Index	Frequency (Hz)	Z' (Ω)	-Z'' (Ω)	Z (Ω)	-Phase (°)	Time (s)
1	1000000	2281.02	3578.13	4243.36	57.483	133.387
2	794330	2976.34	3864.86	4878.08	52.4	134.817
3	630960	3848.34	4214.47	5707.14	47.6	136.212
4	501190	4760.07	4485.3	6540.35	43.2977	137.717
5	398110	5859.11	4664.42	7489.06	38.5232	142.777
6	316230	6777.5	4651.1	8219.93	34.4601	144.097
7	251190	7465.72	4465.46	8699.27	30.8848	148.158
8	199530	8301.19	4366.3	9379.46	27.7437	149.483
9	158490	9069.16	4221.79	10003.7	24.9625	150.798
10	125890	9753.52	4016.31	10548.1	22.3809	152.108
11	100000	10406.6	3765.08	11066.7	19.89	153.553
12	79433	11005.6	3517.77	11554.1	17.7258	154.863
13	63096	11534.7	3220.39	11975.8	15.5993	156.328
14	50119	11992.6	2954.23	12351.1	13.8386	157.638
15	39811	12398	2648.2	12677.7	12.0572	158.943
16	31623	12723.5	2364.35	12941.3	10.527	160.298
17	25119	13009.2	2127.87	13182.1	9.28938	161.608
18	19953	13213.9	1909.13	13351.2	8.22109	162.938
19	15849	13473.4	1719.38	13582.6	7.27239	164.253
20	12589	13659.8	1553.22	13747.8	6.48709	165.573
21	10000	13791.6	1433.97	13865.9	5.93595	166.918
22	7943.3	13948.6	1318.82	14010.8	5.4012	168.263
23	6309.6	14096.2	1226.26	14149.4	4.9718	169.588
24	5011.9	14240.2	1150.74	14286.6	4.62	170.888
25	3981.1	14364.3	1086.93	14405.4	4.32723	172.208
26	3162.3	14493.8	1046.15	14531.5	4.12842	173.513
27	2511.9	14615.5	1010.77	14650.4	3.95612	174.853
28	1995.3	14747.1	985.399	14779.9	3.82282	176.168
29	1584.9	14869.1	967.964	14900.6	3.72463	177.443
30	1258.9	14998.6	960.312	15029.3	3.66346	178.743
31	1000	15120.7	945.324	15150.2	3.57739	180.078
32	794.33	15253.2	943.15	15282.4	3.53825	181.513
33	630.96	15394.4	942.623	15423.3	3.50393	182.818
34	501.19	15525.4	944.274	15554.1	3.48051	184.178
35	398.11	15657.9	942.656	15686.2	3.44524	185.478
36	316.23	15796.9	951.007	15825.5	3.44516	186.813
37	251.19	15936.8	956.377	15965.5	3.43423	188.193
38	199.53	16073.9	961.721	16102.6	3.42399	189.418
39	158.49	16220.1	968.068	16249	3.41554	190.768
40	125.89	16361.7	974.978	16390.7	3.41017	192.168
41	100	16507.4	978.93	16536.4	3.39381	193.468
42	79.433	16643.2	985.827	16672.3	3.38985	194.913
43	63.096	16763.9	976.76	16792.3	3.33461	196.393
44	50.119	16995.3	957.456	17022.3	3.22443	206.194
45	39.811	17091.8	996	17120.8	3.33506	215.234
46	31.623	17246.3	1004.72	17275.6	3.33411	216.894
47	25.119	17396.3	998.388	17425	3.28464	218.469
48	19.953	17527.5	1001.34	17556.1	3.26974	220.354
49	15.849	17695.2	1023.61	17724.8	3.3107	222.319
50	12.589	17837.3	999.133	17865.2	3.206	224.374
51	10	17967.4	1016.65	17996.2	3.23853	226.564
52	7.9433	18113.1	1004.41	18140.9	3.17391	228.889
53	6.3096	18252.6	1036.08	18282	3.24881	231.194
54	5.0119	18354	1050.89	18384	3.27701	233.569
55	3.9811	18485	1088.97	18517	3.37146	236.004
56	3.1623	18609.3	1119.54	18642.9	3.44277	238.484
57	2.5119	18592.9	1070.27	18623.7	3.29449	241.024
58	1.9953	18733.2	1197.77	18771.4	3.65842	243.699
59	1.5849	18943.8	1361.38	18992.6	4.11047	246.449
60	1.2589	19069.8	1340.98	19116.9	4.02239	249.334
61	1	19245	1635.2	19314.3	4.85662	254.374
62	0.79433	19386.6	1832.98	19473	5.4012	257.545
63	0.63096	19492	2068.16	19601.4	6.05659	261.035
64	0.50119	19693.4	2405.15	19839.7	6.96304	264.865
65	0.39811	19816.1	2824.45	20016.3	8.11191	269.085
66	0.31623	20050.6	3310.77	20322.1	9.37612	273.835
67	0.25119	20184.6	3941.11	20565.7	11.0482	279.295
68	0.19953	20417.1	4688.04	20948.4	12.9317	285.565
69	0.15849	20702.8	5657.6	21462	15.2844	292.805
70	0.12589	21162.1	6738.02	22208.9	17.6615	301.34
71	0.1	21370.1	8020.93	22825.8	20.5728	311.566