File: data/20200212/Z_p28_1.txt
Index	Frequency (Hz)	Z' (Ω)	-Z'' (Ω)	Z (Ω)	-Phase (°)	Time (s)
1	1000000	2406.86	3744.23	4451.1	57.2663	133.51
2	794330	3163.62	4020.82	5116.19	51.804	134.95
3	630960	4111.23	4348.89	5984.57	46.6091	136.34
4	501190	5137.47	4525.43	6846.39	41.3758	137.835
5	398110	6222.79	4666.75	7778.28	36.8679	142.9
6	316230	7146.11	4574.14	8484.67	32.6228	144.215
7	251190	7844.51	4268.01	8930.41	28.5495	148.256
8	199530	8614	4073.44	9528.59	25.3088	149.571
9	158490	9298.66	3839.82	10060.3	22.4379	150.871
10	125890	9924.41	3575.99	10549	19.8152	152.201
11	100000	10453.7	3286.85	10958.2	17.4542	153.646
12	79433	10921.9	3023.88	11332.8	15.4754	154.926
13	63096	11331.5	2742.62	11658.7	13.606	156.241
14	50119	11714.3	2485.61	11975.1	11.9797	157.636
15	39811	12028.4	2243.21	12235.8	10.5639	158.961
16	31623	12278	2010.76	12441.5	9.30079	160.271
17	25119	12510.4	1817.54	12641.7	8.26627	161.606
18	19953	12720.9	1655.95	12828.3	7.41679	162.921
19	15849	12906.4	1513.46	12994.9	6.68819	164.276
20	12589	13064.8	1393.43	13138.9	6.0879	165.611
21	10000	13197.2	1316.63	13262.7	5.69733	166.956
22	7943.3	13351.8	1237.25	13409	5.2942	168.266
23	6309.6	13495.7	1172.29	13546.5	4.96449	169.576
24	5011.9	13641.5	1124.5	13687.8	4.71235	170.911
25	3981.1	13773.8	1087.01	13816.6	4.51236	172.216
26	3162.3	13908.1	1059.85	13948.4	4.35773	173.571
27	2511.9	14040.4	1041.91	14079	4.24403	174.906
28	1995.3	14176.9	1032.26	14214.5	4.1645	176.206
29	1584.9	14314	1028.58	14350.9	4.1101	177.481
30	1258.9	14457.2	1032.93	14494.1	4.08671	178.776
31	1000	14602.7	1038.17	14639.5	4.06657	180.136
32	794.33	14748.7	1045.56	14785.7	4.05502	181.556
33	630.96	14894.9	1056.56	14932.3	4.05747	182.856
34	501.19	15049.7	1069.14	15087.7	4.06349	184.191
35	398.11	15202.4	1082.79	15240.9	4.07401	185.571
36	316.23	15370.1	1099.31	15409.4	4.09097	186.876
37	251.19	15526.3	1116.08	15566.4	4.11153	188.251
38	199.53	15692.7	1131.85	15733.5	4.12535	189.566
39	158.49	15849.9	1148.86	15891.5	4.14576	190.921
40	125.89	16025.8	1166.31	16068.1	4.1625	192.301
41	100	16193.1	1185.54	16236.5	4.18731	193.686
42	79.433	16373.2	1202.18	16417.3	4.19934	195.116
43	63.096	16541.2	1240.22	16587.7	4.28786	196.586
44	50.119	16647.5	1196.52	16690.5	4.11099	206.397
45	39.811	16927.7	1259.36	16974.5	4.25475	215.407
46	31.623	17128.5	1285.38	17176.7	4.29162	217.042
47	25.119	17313.6	1289.48	17361.6	4.25941	218.617
48	19.953	17491.4	1309.58	17540.3	4.28175	220.507
49	15.849	17700.9	1327.81	17750.6	4.28993	222.457
50	12.589	17866.4	1344.73	17916.9	4.30429	224.427
51	10	18066.4	1349.18	18116.7	4.27086	226.737
52	7.9433	18259.9	1363.06	18310.7	4.26908	229.067
53	6.3096	18451.3	1386.1	18503.3	4.29612	231.392
54	5.0119	18649.9	1430.77	18704.7	4.387	233.772
55	3.9811	18820.8	1469.44	18878	4.46435	236.187
56	3.1623	18988.4	1482.24	19046.2	4.46345	238.652
57	2.5119	19017	1513.96	19077.1	4.55177	241.262
58	1.9953	19337.6	1591.91	19403	4.7061	243.887
59	1.5849	19534.6	1822.95	19619.4	5.33135	246.672
60	1.2589	19506.3	2015.53	19610.1	5.89927	249.512
61	1	19807	2247.55	19934.1	6.47379	252.782
62	0.79433	19960.4	2540.61	20121.5	7.25374	258.058
63	0.63096	20130.8	2899.81	20338.6	8.19696	261.463
64	0.50119	20344	3403.01	20626.6	9.49613	265.283
65	0.39811	20555.9	4016.15	20944.6	11.055	269.518
66	0.31623	20879	4776.27	21418.3	12.8853	274.333
67	0.25119	21100.6	5635.02	21840.1	14.9522	279.713
68	0.19953	21468.9	6681.59	22484.6	17.2873	285.913
69	0.15849	21850.9	8068.28	23292.9	20.2663	293.193
70	0.12589	22540	9723.11	24547.7	23.334	301.783
71	0.1	22946.7	11381.1	25614.1	26.3805	311.964