File: data/20200212/Z_p32_1.txt
Index	Frequency (Hz)	Z' (Ω)	-Z'' (Ω)	Z (Ω)	-Phase (°)	Time (s)
1	1000000	2183.74	3447.88	4081.25	57.6516	13.58
2	794330	2843.08	3747.82	4704.17	52.8162	15.2651
3	630960	3681.12	4104.7	5513.55	48.1141	16.7551
4	501190	4599.5	4354.45	6333.77	43.4323	18.3601
5	398110	5524.32	4570.71	7170.05	39.6037	23.4352
6	316230	6439.65	4636.85	7935.33	35.7557	24.7852
7	251190	7150.89	4490.68	8444.02	32.1284	29.2053
8	199530	7985.99	4453.25	9143.71	29.1454	30.6703
9	158490	8751.12	4340.52	9768.43	26.3812	32.1204
10	125890	9494.23	4194.68	10379.6	23.8365	33.5104
11	100000	10175.5	4006.86	10936	21.4933	34.9554
12	79433	10809.7	3785.03	11453.2	19.2978	36.2954
13	63096	11389.5	3536.8	11926	17.2512	37.7105
14	50119	11926.4	3283.04	12370	15.3909	39.0555
15	39811	12401.8	3019.75	12764.1	13.6848	40.4255
16	31623	12799.8	2750.55	13092	12.1279	41.7606
17	25119	13146.7	2515.16	13385.1	10.8307	43.1056
18	19953	13452.9	2312.89	13650.3	9.75519	44.5556
19	15849	13748.3	2079.81	13904.7	8.60232	46.0006
20	12589	13974.6	1899.79	14103.1	7.74168	47.3657
21	10000	14168.9	1769.37	14278.9	7.11812	48.7107
22	7943.3	14367.2	1639.72	14460.4	6.51098	50.0707
23	6309.6	14556.8	1535.11	14637.5	6.01998	51.4307
24	5011.9	14738.4	1450.45	14809.6	5.62055	55.3408
25	3981.1	14899.5	1388.43	14964.1	5.32382	56.7308
26	3162.3	15061.5	1338.69	15120.8	5.07922	58.0959
27	2511.9	15224.6	1307.31	15280.6	4.90785	59.5709
28	1995.3	15385.4	1287.14	15439.2	4.78222	60.9209
29	1584.9	15543.2	1279.88	15595.8	4.70732	62.2309
30	1258.9	15705	1289.51	15757.8	4.69393	63.621
31	1000	15870.9	1292.21	15923.4	4.65475	65.046
32	794.33	16043.9	1313.22	16097.6	4.6793	66.381
33	630.96	16223	1342.86	16278.5	4.73189	67.711
34	501.19	16397.4	1378.08	16455.2	4.80401	69.1061
35	398.11	16591.7	1419.96	16652.4	4.89159	70.3161
36	316.23	16793.8	1471.35	16858.2	5.00705	71.6511
37	251.19	16988.6	1529.26	17057.3	5.14373	73.0611
38	199.53	17194.8	1597.1	17268.8	5.30656	74.4812
39	158.49	17407.6	1670.33	17487.5	5.48099	75.8662
40	125.89	17645.1	1750.46	17731.7	5.66543	77.3462
41	100	17877.3	1844.87	17972.3	5.89186	78.7662
42	79.433	18129.5	1946.4	18233.7	6.12785	80.2613
43	63.096	18399.2	2030.22	18510.8	6.29673	81.7863
44	50.119	18562.8	2208.83	18693.7	6.78585	91.7615
45	39.811	18969.5	2327.96	19111.8	6.99641	100.937
46	31.623	19272.3	2500.01	19433.8	7.39114	102.692
47	25.119	19608.3	2676.5	19790.1	7.77277	104.407
48	19.953	19950.9	2864	20155.4	8.16913	106.337
49	15.849	20317.4	3089.92	20551	8.6474	108.377
50	12.589	20728.2	3333.99	20994.6	9.13738	110.497
51	10	21159.4	3613.71	21465.7	9.69178	112.922
52	7.9433	21603.4	3957.37	21962.9	10.3805	115.262
53	6.3096	22077.1	4326.9	22497.1	11.0889	117.702
54	5.0119	22618.5	4763.19	23114.6	11.8921	120.122
55	3.9811	23167.6	5240.18	23752.8	12.745	122.657
56	3.1623	23762.6	5717.85	24440.9	13.5295	125.162
57	2.5119	24339.8	6438.84	25177	14.8176	127.717
58	1.9953	25243.3	7133.04	26231.7	15.7788	130.387
59	1.5849	26160.7	8278.64	27439.4	17.5601	133.182
60	1.2589	26768.4	8604.48	28117.3	17.8196	136.052
61	1	27976.7	10163.8	29765.7	19.9658	142.877
62	0.79433	29145.5	11463	31318.7	21.4698	146.082
63	0.63096	30344.4	12932.4	32985.3	23.0832	149.583
64	0.50119	31709.2	14668.7	34937.7	24.8252	153.643
65	0.39811	33251.8	16632.3	37179.5	26.5739	157.968
66	0.31623	34987.8	18966.1	39797.7	28.4611	163.088
67	0.25119	37148.2	21846.1	43095.7	30.459	168.683
68	0.19953	39273.8	25046.2	46580.5	32.527	175.173
69	0.15849	41861.5	28754.5	50785.9	34.485	182.623
70	0.12589	45029.7	32846.5	55736.5	36.1085	191.308
71	0.1	47858.5	37696.4	60921.7	38.2262	201.659