File: data/20200212/Z_p30_1.txt
Index	Frequency (Hz)	Z' (Ω)	-Z'' (Ω)	Z (Ω)	-Phase (°)	Time (s)
1	1000000	2552.47	3542.65	4366.4	54.2274	133.778
2	794330	3246.92	3724.21	4940.87	48.9168	135.238
3	630960	4113.29	3924.56	5685.18	43.655	136.668
4	501190	5025.58	4014.87	6432.39	38.6209	138.208
5	398110	6029.84	4032.89	7254.18	33.7754	143.263
6	316230	6743.5	3849.65	7764.95	29.7207	144.628
7	251190	7352.72	3584.25	8179.82	25.988	148.729
8	199530	7969.88	3377.97	8656.19	22.9693	150.034
9	158490	8518.34	3164.98	9087.31	20.3825	151.359
10	125890	8997.04	2938.4	9464.72	18.0868	152.664
11	100000	9428.13	2707.41	9809.17	16.0221	154.134
12	79433	9807.21	2484.03	10116.9	14.2133	155.499
13	63096	10144.3	2265.43	10394.2	12.5888	157.549
14	50119	10443.3	2060.72	10644.7	11.1625	158.924
15	39811	10701.5	1855.74	10861.2	9.83776	160.289
16	31623	10919.4	1683.22	11048.3	8.76316	161.614
17	25119	11113.3	1537.19	11219.2	7.87516	162.929
18	19953	11295.3	1416.95	11383.8	7.15019	164.274
19	15849	11449.6	1289.53	11522	6.42596	165.599
20	12589	11599.3	1197.62	11661	5.89484	166.939
21	10000	11714.1	1135.95	11769.1	5.53881	168.284
22	7943.3	11854.7	1072.68	11903.2	5.17036	169.624
23	6309.6	11984	1020.49	12027.4	4.86723	170.969
24	5011.9	12101.3	978.938	12140.9	4.62488	173.384
25	3981.1	12229.6	952.018	12266.6	4.45122	174.734
26	3162.3	12347.3	928.552	12382.2	4.30069	176.044
27	2511.9	12468.8	913.281	12502.2	4.18917	177.444
28	1995.3	12585.6	903.907	12618	4.10798	178.774
29	1584.9	12708.2	900.121	12740	4.0515	180.049
30	1258.9	12831.4	902.564	12863.1	4.02358	181.379
31	1000	12951.2	900.587	12982.4	3.97778	182.699
32	794.33	13083.9	907.326	13115.4	3.96691	184.184
33	630.96	13216.2	912.617	13247.7	3.95017	185.519
34	501.19	13346.1	919.13	13377.7	3.93967	186.944
35	398.11	13478.4	929.616	13510.4	3.94548	188.169
36	316.23	13621.5	937.957	13653.8	3.93908	189.499
37	251.19	13758.1	947.986	13790.7	3.94166	190.869
38	199.53	13897	956.563	13929.9	3.9376	192.184
39	158.49	14040.2	967.314	14073.5	3.94123	193.764
40	125.89	14178.8	975.761	14212.4	3.93679	195.174
41	100	14336.4	981.946	14370	3.91824	196.439
42	79.433	14478.6	989.318	14512.4	3.90892	198.054
43	63.096	14625.2	1011.03	14660.1	3.95451	199.524
44	50.119	14837.7	1074.05	14876.5	4.14023	209.48
45	39.811	14934.8	997.275	14968	3.82027	218.59
46	31.623	15091	997.748	15124	3.78262	220.3
47	25.119	15235.6	994.582	15268	3.73499	221.93
48	19.953	15375.6	985.352	15407.1	3.66681	223.82
49	15.849	15534	979.575	15564.9	3.60829	225.87
50	12.589	15670.3	968.356	15700.2	3.53612	227.97
51	10	15814.8	960.642	15843.9	3.47606	230.295
52	7.9433	15953.6	945.714	15981.6	3.39246	232.66
53	6.3096	16087.2	942.43	16114.8	3.35271	235.025
54	5.0119	16198.7	937.856	16225.8	3.31356	237.475
55	3.9811	16318.8	947.626	16346.2	3.32342	239.91
56	3.1623	16454.2	1019.37	16485.7	3.54506	242.395
57	2.5119	16628.6	927.198	16654.5	3.19146	244.92
58	1.9953	16552.9	1003.68	16583.3	3.46987	247.565
59	1.5849	16753.9	1051.89	16786.9	3.59257	250.31
60	1.2589	16809.1	1017.55	16839.9	3.46419	253.175
61	1	16952.8	1304.12	17002.9	4.39891	259.886
62	0.79433	17068.2	1452.94	17130	4.8656	263.021
63	0.63096	17162.7	1631.45	17240	5.43012	266.526
64	0.50119	17236.1	1894.49	17339.9	6.27243	270.356
65	0.39811	17345.9	2200.28	17484.9	7.22921	274.666
66	0.31623	17485.4	2650.3	17685.1	8.61883	279.451
67	0.25119	17636.9	3081.25	17904.1	9.90983	284.846
68	0.19953	17813.5	3690.12	18191.7	11.7034	291.071
69	0.15849	17941.1	4437.68	18481.8	13.8931	298.336
70	0.12589	18191.2	5499.33	19004.3	16.8205	306.906
71	0.1	18576.9	6490.22	19678.1	19.2579	317.087