File: data/20200212/Z_p31_1.txt
Index	Frequency (Hz)	Z' (Ω)	-Z'' (Ω)	Z (Ω)	-Phase (°)	Time (s)
1	1000000	2266.19	3660.7	4305.38	58.24	130.487
2	794330	2954.74	3970.34	4949.15	53.3432	131.922
3	630960	3865.43	4344.79	5815.39	48.3414	133.367
4	501190	4837.41	4577.21	6659.68	43.4169	134.862
5	398110	5936.79	4803.79	7636.88	38.9782	139.977
6	316230	6907.45	4772.71	8395.93	34.6426	141.317
7	251190	7694.66	4575.5	8952.26	30.7371	145.577
8	199530	8535.53	4426.4	9615	27.4106	147.148
9	158490	9305.71	4229.11	10221.6	24.4401	148.538
10	125890	10006.6	3962.4	10762.6	21.6025	149.888
11	100000	10627.2	3673.86	11244.3	19.0705	151.353
12	79433	11178.1	3381.68	11678.4	16.832	152.718
13	63096	11665.1	3086.45	12066.5	14.8201	154.123
14	50119	12071.4	2786.37	12388.8	12.9976	155.558
15	39811	12431.2	2508.91	12681.9	11.4104	156.903
16	31623	12723.5	2254.77	12921.8	10.0492	158.283
17	25119	12978.9	2038.68	13138	8.92688	159.668
18	19953	13210	1840.34	13337.6	7.93107	160.998
19	15849	13406.9	1703.97	13514.8	7.24325	162.398
20	12589	13585.2	1570.06	13675.6	6.59251	163.793
21	10000	13730.1	1480.1	13809.6	6.15273	165.288
22	7943.3	13899.6	1396.61	13969.6	5.73775	166.663
23	6309.6	14063.1	1330.59	14125.9	5.40499	168.048
24	5011.9	14219.8	1286.15	14277.8	5.16824	169.453
25	3981.1	14372	1254.47	14426.6	4.98845	170.813
26	3162.3	14524.9	1234.41	14577.2	4.85765	172.213
27	2511.9	14676.2	1229.24	14727.6	4.78777	173.693
28	1995.3	14833.2	1231.48	14884.2	4.74591	175.143
29	1584.9	14999	1245.36	15050.6	4.74637	176.523
30	1258.9	15161	1266.97	15213.8	4.77698	177.853
31	1000	15333.3	1292.59	15387.7	4.8186	179.193
32	794.33	15508.7	1326.52	15565.4	4.88882	180.668
33	630.96	15696.3	1365.81	15755.6	4.97304	182.073
34	501.19	15878.2	1413.13	15941	5.08581	183.473
35	398.11	16076.3	1464.16	16142.9	5.20387	184.693
36	316.23	16280.1	1523.94	16351.2	5.34774	186.028
37	251.19	16493.6	1588.63	16569.9	5.50164	187.448
38	199.53	16719.1	1658.97	16801.2	5.66667	188.763
39	158.49	16951.8	1740.89	17041	5.86353	190.123
40	125.89	17199.3	1825.39	17295.9	6.05821	191.603
41	100	17455.8	1918.04	17560.9	6.27048	193.043
42	79.433	17729.8	2014.72	17843.9	6.48298	194.483
43	63.096	18012.3	2105.79	18135	6.66808	196.053
44	50.119	18378	2135.14	18501.6	6.62685	214.209
45	39.811	18628.5	2351.65	18776.3	7.19492	223.309
46	31.623	18946.4	2492.36	19109.6	7.49412	224.979
47	25.119	19316.2	2633.8	19494.9	7.7645	226.679
48	19.953	19677.4	2800.63	19875.7	8.10035	228.699
49	15.849	20058.1	2959.15	20275.2	8.39223	230.749
50	12.589	20450	3147.36	20690.8	8.74946	232.769
51	10	20891.7	3323.77	21154.4	9.03972	235.149
52	7.9433	21349.5	3558.64	21644.1	9.46332	237.544
53	6.3096	21772.1	3806.53	22102.4	9.91708	239.969
54	5.0119	22263.6	4082.59	22634.8	10.3912	242.439
55	3.9811	22749.5	4407.4	23172.5	10.9644	244.924
56	3.1623	23301.6	4798.76	23790.6	11.6369	247.414
57	2.5119	23842.9	5524.1	24474.5	13.0446	250.039
58	1.9953	24300	5778.77	24977.7	13.377	252.724
59	1.5849	25296.5	6458.09	26107.9	14.3215	255.665
60	1.2589	25593.8	6911.42	26510.6	15.1118	258.57
61	1	26441.2	7798.09	27567.1	16.432	265.485
62	0.79433	27242.2	8792.57	28626	17.8878	268.675
63	0.63096	28069	9900.34	29763.9	19.4285	272.205
64	0.50119	28946.1	11333.7	31085.8	21.3826	276.165
65	0.39811	29964.1	12968.2	32650	23.4025	280.45
66	0.31623	31077.5	15086.1	34545.6	25.8935	285.295
67	0.25119	32604.2	17422.8	36967.4	28.1189	290.845
68	0.19953	34203.8	20375	39812.5	30.782	297.15
69	0.15849	36001.4	23677.6	43089.8	33.3323	304.52
70	0.12589	37746.7	27548.2	46730.3	36.1226	313.171
71	0.1	40211.4	32852.1	51925.1	39.2483	323.411