File: data/20200314/Z_p22_1.txt
Index	Frequency (Hz)	Z' (Ω)	-Z'' (Ω)	Z (Ω)	-Phase (°)	Time (s)
1	1000000	2284.02	6531.97	6919.79	70.7269	133.54
2	794330	3823.74	7385.5	8316.65	62.6278	134.98
3	630960	5678.66	8660.51	10356.2	56.7473	136.375
4	501190	8138.64	9946.45	12851.8	50.7084	137.875
5	398110	11099.7	11136.9	15723.7	45.0959	143.755
6	316230	13416.7	10796.7	17221.4	38.8244	144.98
7	251190	15133	10345.9	18331.5	34.3591	149.931
8	199530	17142.5	9722.83	19707.8	29.561	151.241
9	158490	18713.1	9033.53	20779.4	25.7684	152.636
10	125890	20226.3	8327.53	21873.5	22.3779	153.931
11	100000	21456.3	7548.87	22745.5	19.3832	155.376
12	79433	22535.2	6760.33	23527.4	16.6987	156.681
13	63096	23706.8	6209.52	24506.6	14.6777	158.086
14	50119	24248.8	5361.22	24834.4	12.4671	159.416
15	39811	24878.1	4644.04	25307.8	10.5738	160.766
16	31623	25440.8	3986.28	25751.2	8.90519	162.106
17	25119	25805.7	3547.74	26048.5	7.82788	163.451
18	19953	26169.2	3141.92	26357.1	6.84627	164.786
19	15849	26529.9	2743.74	26671.4	5.90457	166.086
20	12589	26795.1	2378.61	26900.5	5.07286	167.406
21	10000	26917.6	2108.61	27000.1	4.47916	169.676
22	7943.3	27127.6	1861.12	27191.4	3.92468	170.901
23	6309.6	27302.2	1641.9	27351.5	3.44151	172.201
24	5011.9	27469.9	1474.52	27509.4	3.07257	173.516
25	3981.1	27613.9	1309.78	27645	2.71561	174.851
26	3162.3	27738.9	1188.54	27764.3	2.45348	176.201
27	2511.9	27878.4	1082.22	27899.4	2.22307	177.561
28	1995.3	27981.9	1001.93	27999.9	2.05069	178.906
29	1584.9	28088.2	912.794	28103	1.86131	180.081
30	1258.9	28199.1	849.749	28211.9	1.72602	181.366
31	1000	28300.1	789.796	28311.1	1.59859	182.706
32	794.33	28397.5	739.599	28407.2	1.4919	184.146
33	630.96	28488.8	693.724	28497.3	1.39492	185.476
34	501.19	28571.5	652.988	28579	1.30924	186.826
35	398.11	28666	614.487	28672.6	1.22801	188.031
36	316.23	28745	585.762	28750.9	1.16741	189.366
37	251.19	28839.3	551.323	28844.6	1.09519	190.706
38	199.53	28906	523.558	28910.7	1.03765	191.916
39	158.49	28986.2	498.897	28990.5	0.986052	193.311
40	125.89	29040.6	474.882	29044.5	0.936837	194.731
41	100	29110.2	449.392	29113.6	0.88444	196.056
42	79.433	29175.4	433.424	29178.6	0.851113	197.551
43	63.096	29235.1	387.838	29237.7	0.760052	199.031
44	50.119	29284.6	420.858	29287.6	0.82336	200.401
45	39.811	29337.3	394.018	29339.9	0.769472	209.542
46	31.623	29385.3	385.419	29387.9	0.75145	211.217
47	25.119	29445.9	384.329	29448.4	0.747785	212.827
48	19.953	29484.7	394.945	29487.3	0.767428	214.722
49	15.849	29522.1	406.962	29524.9	0.789772	216.687
50	12.589	29572.8	424.685	29575.9	0.822748	218.722
51	10	29622	441.095	29625.3	0.853117	221.047
52	7.9433	29677.1	472.401	29680.9	0.911959	223.347
53	6.3096	29713.1	513.723	29717.6	0.990513	225.737
54	5.0119	29771.9	566.795	29777.3	1.09066	228.102
55	3.9811	29826.7	628.287	29833.3	1.20673	230.502
56	3.1623	29907.1	698.821	29915.3	1.33855	233.022
57	2.5119	29977.6	822.766	29988.9	1.57215	235.592
58	1.9953	30048.6	893.616	30061.9	1.70342	238.237
59	1.5849	30151.2	1022.74	30168.5	1.94276	240.972
60	1.2589	30239.3	1173.88	30262.1	2.22309	243.877
61	1	30315.1	1365.51	30345.9	2.57908	248.937
62	0.79433	30454.5	1575.33	30495.2	2.96113	252.167
63	0.63096	30605.1	1827.91	30659.7	3.41796	255.678
64	0.50119	30755.3	2125.98	30828.7	3.95432	259.488
65	0.39811	30926.4	2477.04	31025.5	4.5793	263.708
66	0.31623	31124.7	2933.7	31262.6	5.38459	268.513
67	0.25119	31422.1	3418.61	31607.6	6.20914	273.923
68	0.19953	31676.5	4014.06	31929.8	7.22205	280.183
69	0.15849	31962.9	4708.37	32307.8	8.37983	287.423
70	0.12589	32188.6	5652.84	32681.2	9.96049	295.968
71	0.1	32700	6697.72	33378.9	11.5754	306.183