File: data/20200314/Z_p21_1.txt
Index	Frequency (Hz)	Z' (Ω)	-Z'' (Ω)	Z (Ω)	-Phase (°)	Time (s)
1	1000000	2154.27	6066.8	6437.93	70.4504	130.486
2	794330	3401.83	6926.56	7716.85	63.843	132.061
3	630960	5032.37	8184	9607.43	58.4125	133.696
4	501190	7175.09	9150.5	11628.1	51.8993	135.411
5	398110	9432.97	10249.6	13929.6	47.3758	141.301
6	316230	11764.1	10801.9	15971.1	42.5583	142.646
7	251190	13810.7	10368.1	17269.4	36.8968	147.517
8	199530	15847.2	10146.8	18817.3	32.6309	148.902
9	158490	17575.9	9694.5	20072.2	28.8802	150.327
10	125890	19234.3	9185.4	21315	25.527	151.777
11	100000	20713	8599.09	22427	22.546	153.462
12	79433	22043.3	7945.71	23431.7	19.8221	154.952
13	63096	23287.2	7395.75	24433.4	17.6193	156.482
14	50119	24263.3	6563.95	25135.5	15.1379	157.832
15	39811	25187.5	5823.81	25852	13.019	159.222
16	31623	25887.7	5204.11	26405.6	11.3665	160.572
17	25119	26475.2	4580.57	26868.6	9.81576	161.862
18	19953	26973.2	4080.33	27280	8.60213	163.357
19	15849	27558.7	3560.05	27787.7	7.36075	164.667
20	12589	27922.4	3145.13	28099	6.4266	166.042
21	10000	28140.9	2775.73	28277.5	5.63325	168.497
22	7943.3	28427.8	2431.2	28531.5	4.88816	169.892
23	6309.6	28677.7	2148.84	28758.1	4.2852	171.327
24	5011.9	28895.9	1893.88	28957.9	3.74989	172.712
25	3981.1	29078.5	1704.2	29128.4	3.35409	174.012
26	3162.3	29241.9	1514.09	29281	2.96403	175.312
27	2511.9	29391.8	1366.18	29423.6	2.66129	176.667
28	1995.3	29531.9	1237.99	29557.8	2.40045	177.987
29	1584.9	29684	1133.61	29705.6	2.18702	179.287
30	1258.9	29789.1	1047.95	29807.5	2.01477	180.607
31	1000	29910.2	966.053	29925.8	1.84992	181.917
32	794.33	30013.3	900.077	30026.8	1.71774	183.337
33	630.96	30133	845.545	30144.8	1.60733	184.627
34	501.19	30230	792.431	30240.4	1.50157	185.952
35	398.11	30345	753.867	30354.4	1.42312	187.237
36	316.23	30426	720.694	30434.5	1.3569	188.527
37	251.19	30518.5	692.156	30526.4	1.29924	189.927
38	199.53	30614.5	673.397	30621.9	1.26007	191.282
39	158.49	30708.6	656.833	30715.6	1.22532	192.647
40	125.89	30793.4	644.125	30800.2	1.19832	194.027
41	100	30868.4	641.395	30875.1	1.19034	195.312
42	79.433	30949.4	635.673	30956	1.17664	196.737
43	63.096	30999.4	624.437	31005.7	1.15398	198.207
44	50.119	31095.8	615.288	31101.9	1.13356	199.557
45	39.811	31198.6	675.352	31206	1.24008	208.688
46	31.623	31274.6	706.542	31282.5	1.29418	210.338
47	25.119	31368.2	741.082	31377	1.35338	211.908
48	19.953	31445.1	807.788	31455.5	1.47154	213.848
49	15.849	31542.1	867.866	31554.1	1.57607	215.823
50	12.589	31652.2	952.722	31666.5	1.72407	217.843
51	10	31759.4	1036.99	31776.3	1.87013	220.153
52	7.9433	31864.7	1155.57	31885.7	2.07692	222.543
53	6.3096	31999.9	1292.34	32026	2.31267	224.873
54	5.0119	32149.7	1451.22	32182.4	2.58455	227.298
55	3.9811	32319	1634.36	32360.3	2.89496	229.798
56	3.1623	32487.2	1858.76	32540.3	3.27461	232.293
57	2.5119	32741.1	2106.93	32808.8	3.68198	234.818
58	1.9953	32952.6	2391.48	33039.2	4.15087	237.433
59	1.5849	33208.1	2722.53	33319.6	4.68685	240.178
60	1.2589	33475.5	3132.45	33621.8	5.34585	243.023
61	1	33845.6	3530.62	34029.2	5.9553	248.083
62	0.79433	34281.6	4010.48	34515.4	6.6725	251.443
63	0.63096	34662.3	4549.74	34959.6	7.47784	254.929
64	0.50119	35168.8	5193.71	35550.2	8.4007	258.779
65	0.39811	35695.3	5957.21	36189	9.4748	262.999
66	0.31623	36339.8	6792.53	36969.2	10.5874	267.829
67	0.25119	36887.5	7806.13	37704.4	11.9487	273.264
68	0.19953	37587.7	8934.82	38635	13.3714	279.509
69	0.15849	38377.3	10401.9	39762	15.1652	286.744
70	0.12589	39415.6	11967.6	41192.4	16.8896	295.329
71	0.1	40009.5	13894.2	42353.3	19.1507	305.564