File: data/20200314/Z_p26_1.txt
Index	Frequency (Hz)	Z' (Ω)	-Z'' (Ω)	Z (Ω)	-Phase (°)	Time (s)
1	1000000	1660.28	7440.77	7623.75	77.4215	130.988
2	794330	3098.12	9118.27	9630.22	71.2337	132.498
3	630960	4967.94	11347	12386.9	66.3553	133.943
4	501190	7467.57	13727.9	15627.5	61.4551	135.553
5	398110	11186.5	16870.1	20242	56.4519	141.403
6	316230	14406.9	18579.4	23510.7	52.2092	142.698
7	251190	18576.2	18581.7	26274.6	45.0084	147.744
8	199530	22107.5	18654.8	28926.5	40.1583	149.129
9	158490	25553.3	18503.4	31549.2	35.9087	150.614
10	125890	28724	18034.8	33916.4	32.1233	151.949
11	100000	31769.1	17383	36213.8	28.686	153.389
12	79433	34507.9	16720.7	38345.5	25.8524	154.724
13	63096	37291.6	16220.3	40666.5	23.5071	156.154
14	50119	39918.8	15070.7	42668.9	20.6832	157.584
15	39811	42179.7	13914.5	44415.5	18.257	158.929
16	31623	44357.1	12675.8	46132.7	15.9482	160.274
17	25119	46184.6	11542.3	47605	14.0317	161.674
18	19953	47584.1	10260.5	48677.7	12.1683	163.039
19	15849	49350.2	9469.78	50250.5	10.8624	164.409
20	12589	50295	8312.21	50977.3	9.38439	165.749
21	10000	51116.1	7489.4	51661.9	8.33552	167.129
22	7943.3	51976.4	6636.34	52398.4	7.27614	168.469
23	6309.6	52706.6	5841.37	53029.3	6.32417	169.859
24	5011.9	53296.6	5184.21	53548.1	5.55574	171.254
25	3981.1	53906.7	4581.7	54101.1	4.85807	172.754
26	3162.3	54344.2	4071.39	54496.5	4.28452	174.149
27	2511.9	54753.1	3638.57	54873.9	3.80195	175.534
28	1995.3	55101.8	3255.3	55197.9	3.38098	176.869
29	1584.9	55424.2	2939.62	55502.1	3.03604	178.214
30	1258.9	55771.6	2652.04	55834.6	2.72247	179.569
31	1000	56054.9	2430.77	56107.6	2.48302	180.934
32	794.33	56274.5	2248.1	56319.3	2.28769	182.449
33	630.96	56531.7	2082.59	56570	2.10979	183.799
34	501.19	56782.3	1953.52	56815.9	1.97041	185.234
35	398.11	57016.5	1839.51	57046.2	1.84788	186.579
36	316.23	57211	1741.86	57237.5	1.7439	187.959
37	251.19	57429.8	1676.27	57454.3	1.67188	189.399
38	199.53	57599.1	1628.01	57622.1	1.619	190.659
39	158.49	57813.9	1573.79	57835.3	1.5593	192.059
40	125.89	58002.2	1569.95	58023.4	1.55045	193.524
41	100	58188.1	1546.2	58208.7	1.52213	194.919
42	79.433	58377.5	1554.72	58398.2	1.52555	196.399
43	63.096	58424.5	1660.88	58448.1	1.62835	197.919
44	50.119	58893.4	1819.93	58921.5	1.76999	199.379
45	39.811	58941.4	1693.41	58965.7	1.64568	208.65
46	31.623	59158.5	1785.74	59185.5	1.72899	210.325
47	25.119	59371.6	1898.85	59402	1.83183	212.6
48	19.953	59600.5	2047.7	59635.7	1.96774	214.555
49	15.849	59824.4	2256.39	59866.9	2.15999	216.545
50	12.589	60078.5	2438.38	60128	2.32416	218.595
51	10	60341.1	2690.41	60401	2.55294	220.95
52	7.9433	60647.8	2993.79	60721.7	2.82603	223.305
53	6.3096	60967.8	3334.28	61058.9	3.13034	225.71
54	5.0119	61317.5	3725.96	61430.5	3.4773	228.195
55	3.9811	61725.8	4184.47	61867.5	3.87822	230.71
56	3.1623	62162.1	4745.75	62343	4.36577	233.235
57	2.5119	62552.6	5394.4	62784.8	4.92887	235.805
58	1.9953	63262.3	6051.38	63551.1	5.46402	238.48
59	1.5849	63785.6	6977.38	64166.1	6.24265	241.25
60	1.2589	64347.8	8083.5	64853.5	7.1601	244.13
61	1	65053	9219.32	65703	8.06624	249.225
62	0.79433	65860.7	10603.6	66708.9	9.14618	252.435
63	0.63096	66787.6	12367.6	67923.1	10.4911	255.961
64	0.50119	67653.7	14398.9	69169	12.0151	259.816
65	0.39811	68798.6	17041.3	70877.8	13.912	264.091
66	0.31623	69923.5	20067.8	72746.2	16.0133	268.916
67	0.25119	71644.3	24186.7	75616.8	18.6544	274.396
68	0.19953	73275.1	28788	78727.3	21.4486	280.726
69	0.15849	75520.3	34219	82911.2	24.3757	288.116
70	0.12589	78247.1	40019.7	87887.3	27.0876	296.681
71	0.1	80197.9	48303.2	93621	31.0605	306.866