File: data/20200314/Z_p25_1.txt
Index	Frequency (Hz)	Z' (Ω)	-Z'' (Ω)	Z (Ω)	-Phase (°)	Time (s)
1	1000000	1679.2	7083.5	7279.81	76.6638	130.644
2	794330	3080.78	8537.58	9076.42	70.1581	132.014
3	630960	4835.74	10388.5	11458.9	65.0385	133.564
4	501190	7084.14	13169.9	14954.3	61.7241	135.104
5	398110	10095.3	15837.4	18781.3	57.485	141.119
6	316230	13088.2	16940.1	21407.2	52.3098	142.479
7	251190	16442.8	17582.8	24073.3	46.919	146.56
8	199530	20058	17984.2	26939.9	41.8797	147.89
9	158490	23251.6	18005	29407.7	37.7526	149.31
10	125890	26391.4	18154.7	32032.8	34.5242	150.67
11	100000	29405	18021.3	34488	31.5027	152.11
12	79433	32424.2	17798.3	36987.9	28.7632	153.41
13	63096	34870.9	16954	38773.9	25.9287	154.81
14	50119	38138.4	16743	41651.7	23.7018	156.21
15	39811	40906.8	15915.2	43893.8	21.259	157.55
16	31623	43635	14781.2	46070.6	18.7136	158.9
17	25119	45578.9	13861.5	47640.1	16.9156	160.255
18	19953	47770.6	12737.1	49439.5	14.9295	161.63
19	15849	49563.8	11969	50988.5	13.5763	162.995
20	12589	51234.8	10843.7	52369.8	11.9502	164.35
21	10000	52576.6	9959.36	53511.6	10.7262	166.665
22	7943.3	53886	9046.73	54640.1	9.53031	167.9
23	6309.6	55022.6	8129.29	55619.9	8.40434	169.27
24	5011.9	55936.7	7339.36	56416.2	7.47498	170.645
25	3981.1	56835.4	6631.9	57221.1	6.65552	172.025
26	3162.3	57636.7	5927.49	57940.7	5.87179	173.375
27	2511.9	58304.1	5360.42	58550	5.25295	174.77
28	1995.3	58912.3	4872.49	59113.4	4.72803	176.145
29	1584.9	59455.5	4416.78	59619.4	4.24853	177.41
30	1258.9	59955.8	4090.35	60095.2	3.90283	178.695
31	1000	60391.2	3706.64	60504.9	3.51225	180.01
32	794.33	60776.4	3424.28	60872.8	3.22476	181.48
33	630.96	61204	3197.92	61287.4	2.991	182.84
34	501.19	61530.5	3021.47	61604.6	2.81126	184.21
35	398.11	61885	2864.89	61951.3	2.65054	185.395
36	316.23	62207.4	2772.56	62269.1	2.55196	186.72
37	251.19	62550.3	2689.59	62608.1	2.46214	188.12
38	199.53	62848.4	2661.65	62904.8	2.42504	189.5
39	158.49	63142.3	2655.31	63198.1	2.40803	190.925
40	125.89	63449.1	2691.9	63506.1	2.42938	192.44
41	100	63828.9	2745.52	63888	2.46299	193.92
42	79.433	64093.4	2865.59	64157.5	2.55996	195.35
43	63.096	64443.7	3396.64	64533.2	3.0171	196.885
44	50.119	64564.3	3533.51	64660.9	3.13259	198.37
45	39.811	65122	3458.21	65213.8	3.03975	207.506
46	31.623	65538	3791.4	65647.6	3.31089	209.251
47	25.119	65967.1	4134.67	66096.5	3.58648	210.886
48	19.953	66377.1	4605.37	66536.7	3.96893	212.816
49	15.849	66910.1	5101.14	67104.3	4.35972	214.811
50	12.589	67502.4	5793.44	67750.5	4.90543	216.811
51	10	68117.8	6490.11	68426.2	5.44259	219.166
52	7.9433	68809.9	7312.72	69197.4	6.0663	221.521
53	6.3096	69681.1	8291.53	70172.6	6.78586	223.886
54	5.0119	70621.5	9410.03	71245.6	7.58973	226.261
55	3.9811	71750.9	10676.4	72540.9	8.4634	228.741
56	3.1623	72992.8	12097.5	73988.6	9.41043	231.351
57	2.5119	74380.3	13640.5	75620.7	10.3919	233.901
58	1.9953	76373.2	15562.2	77942.6	11.5172	236.606
59	1.5849	77878.4	17629.9	79849	12.7555	239.421
60	1.2589	79794.5	19989	82260.1	14.0635	242.346
61	1	82009.9	22665.5	85084.3	15.4495	247.526
62	0.79433	84619.2	25710.7	88438.9	16.9009	250.631
63	0.63096	87487.6	29029.2	92177.9	18.3563	254.231
64	0.50119	90396.3	33069.1	96255.2	20.0937	258.077
65	0.39811	94024.1	37678.5	101293	21.8376	262.357
66	0.31623	97745.4	43343.3	106924	23.914	267.147
67	0.25119	102813	49508.4	114112	25.7127	272.587
68	0.19953	108078	56862.1	122124	27.7497	278.792
69	0.15849	113965	65060.7	131228	29.7214	286.122
70	0.12589	119874	75179.8	141499	32.0941	294.752
71	0.1	128731	87470.9	155637	34.1956	305.042