File: data/20200314/Z_p27_1.txt
Index	Frequency (Hz)	Z' (Ω)	-Z'' (Ω)	Z (Ω)	-Phase (°)	Time (s)
1	1000000	2312.94	4274.49	4860.13	61.5821	131.973
2	794330	3146.67	4745.56	5694.02	56.4525	133.483
3	630960	4305.52	5194.26	6746.69	50.3446	134.958
4	501190	5556.37	5733.66	7984.24	45.8997	136.568
5	398110	6876.58	6034.69	9149.04	41.2692	142.608
6	316230	8184.47	6011.5	10155	36.2973	143.868
7	251190	9136.37	5767.95	10804.7	32.2649	149.049
8	199530	10201.9	5592.3	11634.1	28.7299	150.464
9	158490	11167.7	5345.76	12381.2	25.5796	151.959
10	125890	12047.5	5045.31	13061.3	22.7232	153.419
11	100000	12838.9	4713.94	13676.9	20.1613	154.854
12	79433	13556.6	4362.96	14241.4	17.8399	156.164
13	63096	14149.6	4011.78	14707.3	15.8294	157.659
14	50119	14748.9	3659.97	15196.3	13.9365	159.154
15	39811	15243.8	3329.56	15603.2	12.3211	160.554
16	31623	15631	2989.82	15914.4	10.8285	161.919
17	25119	15998	2684.68	16221.7	9.52623	163.304
18	19953	16320.6	2465.77	16505.8	8.59145	164.699
19	15849	16604	2247.54	16755.4	7.70879	166.159
20	12589	16856.6	2059.14	16981.9	6.96456	167.594
21	10000	17056.2	1929.86	17165	6.45541	168.969
22	7943.3	17280.5	1793.28	17373.3	5.92465	170.384
23	6309.6	17496.6	1681.53	17577.2	5.48961	171.789
24	5011.9	17694.3	1594.04	17765.9	5.14776	173.169
25	3981.1	17874.3	1525.41	17939.3	4.87785	174.554
26	3162.3	18052.7	1467.43	18112.3	4.64713	175.909
27	2511.9	18245.5	1429.02	18301.4	4.47836	177.364
28	1995.3	18416.4	1401.11	18469.6	4.35066	178.669
29	1584.9	18604.7	1381.12	18655.9	4.24557	180.004
30	1258.9	18789.9	1373.37	18840.1	4.18036	181.414
31	1000	18982	1367.73	19031.2	4.12127	182.854
32	794.33	19169.4	1368.09	19218.1	4.0822	184.214
33	630.96	19357	1374.25	19405.7	4.06088	185.594
34	501.19	19547.8	1382.39	19596.6	4.04513	186.974
35	398.11	19758.5	1394.8	19807.7	4.03794	188.329
36	316.23	19961.3	1409.65	20011	4.03948	189.719
37	251.19	20159.9	1423.8	20210.2	4.03982	191.149
38	199.53	20367.3	1441.59	20418.3	4.04862	192.604
39	158.49	20578.2	1459.53	20629.9	4.05697	194.134
40	125.89	20798.5	1481.19	20851.2	4.07351	195.719
41	100	21013.6	1499.75	21067.1	4.08231	197.069
42	79.433	21235.4	1518.57	21289.7	4.09031	198.594
43	63.096	21464	1558.19	21520.4	4.15215	200.184
44	50.119	21633.5	1667.43	21697.7	4.40743	218.54
45	39.811	21929.4	1587.72	21986.8	4.14107	227.655
46	31.623	22152.3	1641.15	22213	4.23699	229.445
47	25.119	22399.5	1625.16	22458.4	4.14972	231.13
48	19.953	22640	1679.61	22702.3	4.24285	233.14
49	15.849	22892.6	1717.86	22956.9	4.29144	235.215
50	12.589	23142	1728.61	23206.4	4.27182	237.265
51	10	23370.7	1741.85	23435.5	4.26246	239.585
52	7.9433	23580.4	1775.51	23647.1	4.30602	242.035
53	6.3096	23845.5	1792.97	23912.8	4.30005	244.4
54	5.0119	24123.9	1885.25	24197.4	4.46851	246.955
55	3.9811	24350.6	1917.12	24425.9	4.5016	249.495
56	3.1623	24632.2	1953.59	24709.5	4.53466	252.01
57	2.5119	24819.1	1941.96	24894.9	4.47399	254.665
58	1.9953	24952.7	3281.34	25167.6	7.49153	257.476
59	1.5849	25031.9	2098.43	25119.7	4.7919	260.286
60	1.2589	25310.8	2586.89	25442.6	5.83566	263.301
61	1	25745.4	2755.81	25892.4	6.10974	270.176
62	0.79433	25987	3060.33	26166.6	6.71645	273.411
63	0.63096	26248.5	3421.24	26470.5	7.42611	277.041
64	0.50119	26457.9	3900.15	26743.8	8.38556	280.956
65	0.39811	26746.1	4546.54	27129.8	9.64743	285.376
66	0.31623	27028.2	5288.57	27540.8	11.0711	290.236
67	0.25119	27317.7	6377.49	28052.2	13.1407	295.811
68	0.19953	27643.6	7529.76	28650.7	15.237	302.116
69	0.15849	28114.8	9070.75	29541.9	17.8814	309.477
70	0.12589	28781	10760.5	30726.8	20.4994	318.047
71	0.1	29043.6	12859.6	31763.2	23.8823	328.347