File: data/20200314/Z_p24_1.txt
Index	Frequency (Hz)	Z' (Ω)	-Z'' (Ω)	Z (Ω)	-Phase (°)	Time (s)
1	1000000	1798.8	6230.41	6484.88	73.8959	130.638
2	794330	2934.9	7336.26	7901.54	68.1959	132.063
3	630960	4310.25	8899.5	9888.35	64.158	133.443
4	501190	6206.5	10604.2	12287	59.6602	134.963
5	398110	8743.2	12830.2	15526	55.7273	140.928
6	316230	11272.5	13828	17840.5	50.8133	142.273
7	251190	13892.5	14327.3	19956.7	45.8827	146.393
8	199530	16626.1	14592	22121.3	41.2721	147.709
9	158490	19303.4	14800.6	24324.4	37.4786	149.044
10	125890	21805.6	14880.3	26399	34.3098	150.334
11	100000	24266.8	14808.3	28428.2	31.3929	151.779
12	79433	26768.3	14600.1	30491.1	28.609	153.104
13	63096	29421	14050.9	32604.1	25.5282	154.439
14	50119	31473.9	13780.2	34358.4	23.6452	155.879
15	39811	33941.6	13268.7	36442.9	21.352	157.229
16	31623	35827.5	12426.1	37921.2	19.1281	158.564
17	25119	37713.4	11586.4	39453.1	17.0781	159.889
18	19953	39658.7	10898.7	41129	15.3663	161.234
19	15849	41128.5	9830.96	42287.2	13.4432	162.604
20	12589	42630.7	8892.82	43548.4	11.783	163.924
21	10000	43630.9	8227.79	44400	10.6793	165.289
22	7943.3	44693.2	7402.32	45302.1	9.40424	166.659
23	6309.6	45626.6	6634.77	46106.4	8.27366	168.044
24	5011.9	46439.7	5966.26	46821.4	7.32088	169.464
25	3981.1	47122.8	5335.17	47423.8	6.45944	170.849
26	3162.3	47694.1	4748.69	47930	5.68595	172.209
27	2511.9	48210.8	4269.67	48399.5	5.06105	173.539
28	1995.3	48675.7	3830.29	48826.2	4.49933	174.859
29	1584.9	49089.3	3473.16	49212	4.04704	176.134
30	1258.9	49458.9	3140.97	49558.5	3.63379	177.464
31	1000	49823	2857.7	49904.9	3.28272	178.854
32	794.33	50148.3	2634.69	50217.4	3.00745	180.329
33	630.96	50416.7	2429.83	50475.3	2.75923	181.694
34	501.19	50710.2	2264.05	50760.7	2.55637	183.074
35	398.11	50982.2	2119	51026.2	2.38004	184.329
36	316.23	51210	2002.44	51249.2	2.23926	185.709
37	251.19	51458.5	1917	51494.2	2.13347	187.084
38	199.53	51703	1853.75	51736.2	2.05339	188.429
39	158.49	51928.9	1804.4	51960.2	1.99008	189.839
40	125.89	52112.1	1762.7	52141.9	1.9373	191.259
41	100	52335.1	1768.79	52365	1.93571	192.669
42	79.433	52526.5	1769.89	52556.3	1.92986	194.139
43	63.096	52780.7	1703.32	52808.2	1.84839	195.674
44	50.119	52841.6	1854.15	52874.1	2.00961	197.214
45	39.811	53226.2	1919.86	53260.9	2.06575	206.36
46	31.623	53462.8	2028.11	53501.2	2.17247	208.02
47	25.119	53703.9	2132.5	53746.2	2.27394	209.65
48	19.953	53944.7	2312.18	53994.2	2.45432	211.635
49	15.849	54199.9	2485.64	54256.9	2.62577	213.63
50	12.589	54544.5	2699.32	54611.3	2.83317	215.665
51	10	54849.1	2983.56	54930.2	3.11357	217.975
52	7.9433	55181.5	3295.41	55279.8	3.41762	220.37
53	6.3096	55546.5	3663.52	55667.2	3.77342	222.755
54	5.0119	55982.3	4090.05	56131.5	4.17859	225.19
55	3.9811	56440.4	4553.76	56623.8	4.61279	227.69
56	3.1623	57011.2	5089.2	57237.9	5.10109	230.37
57	2.5119	57646.6	5710.8	57928.8	5.65759	232.96
58	1.9953	58260.2	6415.74	58612.4	6.28421	235.66
59	1.5849	58883.4	7242.59	59327.2	7.01209	238.415
60	1.2589	59639.9	8124.98	60190.8	7.75788	241.38
61	1	60415.7	9305.3	61128.1	8.75597	246.515
62	0.79433	61334.5	10565.9	62237.9	9.77427	249.715
63	0.63096	62317.4	12065.1	63474.6	10.9573	253.24
64	0.50119	63269.8	13913	64781.5	12.4019	257.116
65	0.39811	64514	16240	66526.7	14.1294	261.451
66	0.31623	65622	18963.3	68307.1	16.1181	266.221
67	0.25119	67476.3	22574.1	71152.2	18.4976	271.711
68	0.19953	69148.3	26644	74103.9	21.0725	277.986
69	0.15849	71467	31331.2	78033.2	23.6727	285.271
70	0.12589	73885.5	37065.1	82661.3	26.6409	294.806
71	0.1	76089.3	43313.9	87553.8	29.6507	305.096