File: data/20200314/Z_p28_1.txt
Index	Frequency (Hz)	Z' (Ω)	-Z'' (Ω)	Z (Ω)	-Phase (°)	Time (s)
1	1000000	2396.55	4564.51	5155.41	62.2988	131.749
2	794330	3279.66	5030.19	6004.91	56.8958	133.214
3	630960	4565.78	5493.57	7143.22	50.2696	134.689
4	501190	5862.68	5899.19	8316.94	45.1779	136.264
5	398110	7254.65	6459.02	9713.33	41.6796	145.549
6	316230	8648.62	6214.35	10649.7	35.6986	146.949
7	251190	9694.55	5992.63	11397.2	31.7221	151.34
8	199530	10770.6	5781.2	12224.1	28.225	152.645
9	158490	11760.8	5524.09	12993.5	25.1596	154.115
10	125890	12672.1	5187.12	13692.6	22.2609	155.43
11	100000	13475	4820.6	14311.3	19.6844	156.86
12	79433	14185.5	4441.87	14864.7	17.3868	158.215
13	63096	14782.7	4091.06	15338.4	15.4692	159.585
14	50119	15385	3673.26	15817.4	13.4283	160.98
15	39811	15867.9	3332.27	16214	11.8598	162.355
16	31623	16267.7	2961.3	16535	10.3169	163.755
17	25119	16617.3	2686.19	16833	9.18244	165.055
18	19953	16945.8	2433.82	17119.7	8.17313	166.405
19	15849	17217.2	2257.24	17364.5	7.4691	167.755
20	12589	17456.6	1999.52	17570.7	6.53433	169.14
21	10000	17640.1	1883.6	17740.3	6.09493	171.44
22	7943.3	17850.2	1746.38	17935.5	5.58776	172.66
23	6309.6	18060.6	1640.69	18134.9	5.19072	174.075
24	5011.9	18244.5	1556.91	18310.8	4.87755	175.475
25	3981.1	18432.3	1492.91	18492.6	4.63053	176.85
26	3162.3	18611.1	1440.43	18666.7	4.42567	178.2
27	2511.9	18788.2	1407.28	18840.8	4.2836	179.645
28	1995.3	18959.9	1383.81	19010.4	4.17438	180.955
29	1584.9	19136.5	1371.29	19185.6	4.09872	182.34
30	1258.9	19332.1	1367.55	19380.4	4.04636	183.72
31	1000	19514.9	1367.49	19562.8	4.00839	185.14
32	794.33	19704.1	1372.42	19751.9	3.9843	186.6
33	630.96	19903.1	1382.86	19951.1	3.9745	188.17
34	501.19	20104.2	1395.61	20152.5	3.97104	189.64
35	398.11	20305.2	1409.65	20354.1	3.97127	190.92
36	316.23	20512.2	1427.32	20561.8	3.98045	192.415
37	251.19	20725.8	1441.72	20775.9	3.97917	193.885
38	199.53	20936.9	1457.97	20987.6	3.98345	195.3
39	158.49	21157	1474.13	21208.3	3.9857	196.78
40	125.89	21371.6	1487.38	21423.3	3.98115	198.265
41	100	21595.4	1503.64	21647.6	3.98296	199.81
42	79.433	21827.8	1512.52	21880.1	3.96389	201.371
43	63.096	22050.3	1495.39	22100.9	3.87969	202.946
44	50.119	22711.3	1702.26	22775	4.28643	221.266
45	39.811	22528.5	1535.93	22580.8	3.90023	230.366
46	31.623	22770.2	1551.92	22823	3.89901	232.031
47	25.119	23018.6	1537.54	23069.9	3.82141	233.816
48	19.953	23244.5	1544.37	23295.7	3.80116	235.806
49	15.849	23479.3	1587.62	23533	3.86832	237.871
50	12.589	23691.2	1538.91	23741.1	3.71655	239.951
51	10	23924.4	1522.65	23972.8	3.64164	242.381
52	7.9433	24122.1	1525.18	24170.3	3.61784	244.791
53	6.3096	24378.9	1524.87	24426.6	3.57913	247.266
54	5.0119	24537.1	1522.37	24584.3	3.55028	249.721
55	3.9811	24728.6	1613.95	24781.2	3.73422	252.181
56	3.1623	24886.1	1545.77	24934.1	3.55429	254.826
57	2.5119	24478.4	1652.14	24534.1	3.86126	257.432
58	1.9953	24621.1	1711.79	24680.5	3.97712	260.107
59	1.5849	25359.4	1632.55	25411.9	3.68343	262.972
60	1.2589	25658.3	2348.88	25765.5	5.23056	265.932
61	1	25710.9	2206	25805.3	4.90398	272.742
62	0.79433	25874.1	2472.25	25991.9	5.458	275.962
63	0.63096	26022.5	2832.9	26176.2	6.21294	279.487
64	0.50119	26215.1	3287.65	26420.4	7.14818	283.347
65	0.39811	26380.6	3888.84	26665.7	8.38575	287.692
66	0.31623	26673.1	4619.71	27070.2	9.82601	292.487
67	0.25119	26860.4	5476.7	27413.1	11.5243	298.012
68	0.19953	27201.9	6488.5	27965	13.4161	304.407
69	0.15849	27563.3	7793.76	28644	15.7887	311.938
70	0.12589	28015.1	9587.43	29610.2	18.8922	320.498
71	0.1	28764.5	11306.7	30907	21.4588	330.768