File: data/20200314/Z_p29_1.txt
Index	Frequency (Hz)	Z' (Ω)	-Z'' (Ω)	Z (Ω)	-Phase (°)	Time (s)
1	1000000	2291.5	4138.86	4730.87	61.0287	131.899
2	794330	3052.44	4526.47	5459.52	56.0061	133.424
3	630960	4186.48	5044.98	6555.8	50.3131	134.884
4	501190	5265.54	5591.16	7680.3	46.7179	136.429
5	398110	6486.86	5947.53	8800.71	42.5164	142.474
6	316230	7684.04	5881.92	9676.85	37.4331	143.809
7	251190	8655.97	5798.07	10418.4	33.8155	148.9
8	199530	9684.61	5748.57	11262.2	30.6924	150.305
9	158490	10696.3	5618.31	12082	27.7111	151.735
10	125890	11662.1	5459.7	12876.8	25.087	153.085
11	100000	12578.9	5227.71	13622	22.5674	154.6
12	79433	13401.3	4919.95	14275.9	20.1595	155.965
13	63096	14219.1	4597.84	14944	17.919	157.395
14	50119	14909.1	4256.51	15504.8	15.9339	158.845
15	39811	15527.1	3878.38	16004.1	14.0245	160.205
16	31623	16070.7	3504.35	16448.4	12.3012	161.59
17	25119	16512	3152.99	16810.3	10.8106	162.945
18	19953	16931.7	2821.74	17165.3	9.4616	164.39
19	15849	17218.9	2544.47	17405.9	8.40586	165.805
20	12589	17571.8	2285.74	17719.8	7.41143	167.255
21	10000	17722.8	2090.86	17845.7	6.7284	169.68
22	7943.3	17964	1909.64	18065.3	6.06794	171.015
23	6309.6	18168.9	1748.47	18252.9	5.49688	172.425
24	5011.9	18362.4	1614.7	18433.2	5.0254	173.925
25	3981.1	18540.9	1513.04	18602.5	4.66531	175.355
26	3162.3	18709.4	1437.26	18764.5	4.39284	176.805
27	2511.9	18874.1	1373.39	18924	4.16184	178.275
28	1995.3	19050.6	1325.64	19096.6	3.98051	179.785
29	1584.9	19209.9	1287.37	19252.9	3.83402	181.155
30	1258.9	19364.6	1265.29	19405.9	3.73839	182.59
31	1000	19531.2	1242.6	19570.7	3.64032	183.99
32	794.33	19704	1232.66	19742.5	3.5797	185.505
33	630.96	19866.2	1226.22	19904	3.53205	186.91
34	501.19	20045.1	1222.24	20082.3	3.48926	188.35
35	398.11	20217.1	1223.11	20254.1	3.46211	189.73
36	316.23	20389.6	1227.31	20426.5	3.44465	191.125
37	251.19	20576.9	1231.48	20613.7	3.42494	192.65
38	199.53	20764.4	1243.78	20801.6	3.4279	194.15
39	158.49	20932.2	1248.18	20969.4	3.41249	195.61
40	125.89	21128.2	1257.58	21165.6	3.4063	197.2
41	100	21306.5	1265.79	21344	3.39988	198.555
42	79.433	21491.9	1272.4	21529.5	3.38817	200.02
43	63.096	21668	1325.88	21708.5	3.50161	201.576
44	50.119	22153.3	1325.4	22192.9	3.42384	219.896
45	39.811	22097.3	1306.67	22135.9	3.38409	229.121
46	31.623	22279.6	1291.11	22317	3.31659	230.936
47	25.119	22487.9	1275.21	22524	3.24557	232.621
48	19.953	22663.7	1356.15	22704.3	3.42437	234.721
49	15.849	22868.4	1248.63	22902.5	3.12527	236.901
50	12.589	23079.1	1345.87	23118.3	3.33746	239.056
51	10	23264.2	1335.21	23302.5	3.2848	241.536
52	7.9433	23430.5	1364.02	23470.2	3.33174	243.971
53	6.3096	23644.5	1343.39	23682.7	3.25182	246.421
54	5.0119	23780.6	1398.54	23821.7	3.36569	248.986
55	3.9811	24018.6	1391.9	24058.9	3.31664	251.661
56	3.1623	24256.6	1569.48	24307.4	3.70206	254.386
57	2.5119	24640	1932.24	24715.7	4.48389	257.187
58	1.9953	24376.9	1641.97	24432.2	3.85349	259.982
59	1.5849	24543.2	1468.23	24587.1	3.42349	263.332
60	1.2589	24963.7	1783.59	25027.3	4.08669	266.327
61	1	24965.8	2137.54	25057.2	4.89367	273.227
62	0.79433	25147.2	2384.68	25260.1	5.41708	276.457
63	0.63096	25357.5	2689.59	25499.7	6.05455	280.057
64	0.50119	25532	3085.48	25717.8	6.89063	284.012
65	0.39811	25744.6	3629.18	25999.2	8.02403	288.422
66	0.31623	25995.4	4242.39	26339.3	9.26883	293.312
67	0.25119	26208.8	5091.44	26698.8	10.9936	298.882
68	0.19953	26510.3	6010.79	27183.2	12.7749	305.162
69	0.15849	26902.7	7253.92	27863.5	15.0901	312.418
70	0.12589	27527.9	8642.5	28852.7	17.4299	321.083
71	0.1	27856.7	10198.1	29664.7	20.1073	331.413