File: data/20200314/Z_p23_1.txt
Index	Frequency (Hz)	Z' (Ω)	-Z'' (Ω)	Z (Ω)	-Phase (°)	Time (s)
1	1000000	1826.12	6959.65	7195.24	75.2978	130.422
2	794330	3144.76	8467.16	9032.29	69.6246	131.787
3	630960	4991.76	10222.9	11376.5	63.9742	133.217
4	501190	7183.02	12327.7	14267.7	59.7717	134.752
5	398110	10398.8	14838.3	18119.3	54.9769	140.702
6	316230	13897.9	15610.1	20900.4	48.3208	142.037
7	251190	16825.5	16050.9	23253.6	43.6504	146.973
8	199530	19979.1	16098	25657.6	38.8598	148.308
9	158490	22758.3	15926	27777.3	34.9839	149.703
10	125890	25584.7	15670.7	30002.5	31.4877	150.998
11	100000	28139.4	15163.3	31964.9	28.3186	152.408
12	79433	30662.8	14685.2	33997.9	25.5909	153.718
13	63096	32747.6	14023.6	35624	23.1822	155.128
14	50119	35132.9	13407.2	37604.2	20.8875	156.543
15	39811	37190.8	12384.5	39198.6	18.4178	157.863
16	31623	38984.8	11470.6	40637.3	16.3956	159.188
17	25119	40578.9	10425	41896.6	14.408	160.518
18	19953	42077.2	9817.64	43207.4	13.1335	161.828
19	15849	43438.9	8670.83	44295.9	11.2884	163.158
20	12589	44625.2	7917.48	45322.2	10.0608	164.498
21	10000	45527.3	7084.37	46075.2	8.8447	165.863
22	7943.3	46414.2	6321.06	46842.6	7.75529	167.248
23	6309.6	47135.8	5632.32	47471.1	6.81404	168.633
24	5011.9	47765.2	5001.02	48026.3	5.97709	170.003
25	3981.1	48376.9	4498.06	48585.6	5.31206	171.348
26	3162.3	48796.1	4005.68	48960.2	4.69291	172.693
27	2511.9	49221.7	3592.89	49352.7	4.17485	174.078
28	1995.3	49655.8	3222.63	49760.2	3.71326	175.423
29	1584.9	49963.3	2927.47	50049	3.35326	176.758
30	1258.9	50275.1	2680.75	50346.5	3.05221	178.053
31	1000	50549.4	2459.99	50609.2	2.78611	179.378
32	794.33	50854.9	2259.27	50905	2.54374	180.808
33	630.96	51108.8	2099.6	51151.9	2.35245	182.118
34	501.19	51353.8	1961.28	51391.2	2.18715	183.443
35	398.11	51566.7	1862.99	51600.3	2.06907	184.768
36	316.23	51791.1	1774.83	51821.5	1.9627	186.128
37	251.19	52002.9	1698.54	52030.7	1.87075	187.523
38	199.53	52216.7	1664.53	52243.2	1.82582	188.758
39	158.49	52408.7	1630.57	52434	1.78205	190.143
40	125.89	52633.9	1629.74	52659.1	1.77352	191.578
41	100	52812.8	1644.09	52838.4	1.78307	192.913
42	79.433	52981.4	1666.61	53007.6	1.80173	194.378
43	63.096	53084.5	1669.49	53110.8	1.80134	195.903
44	50.119	53441.4	1808.63	53472	1.93834	197.353
45	39.811	53634	1894.98	53667.5	2.02352	206.514
46	31.623	53844.8	2029.17	53883	2.1582	208.159
47	25.119	54076.3	2189.3	54120.6	2.31838	209.774
48	19.953	54337.2	2383	54389.5	2.51114	211.699
49	15.849	54647.9	2623.54	54710.9	2.74855	213.644
50	12.589	54924.5	2897.92	55000.9	3.02023	215.639
51	10	55300.6	3179.89	55391.9	3.29099	217.949
52	7.9433	55691.5	3555.85	55804.9	3.65332	220.294
53	6.3096	56118.6	3940.58	56256.8	4.01664	222.619
54	5.0119	56628.7	4360.79	56796.3	4.40347	225.054
55	3.9811	57138.9	4863.3	57345.5	4.86493	227.524
56	3.1623	57739.8	5413.87	57993	5.35658	229.969
57	2.5119	58272.6	5932.15	58573.7	5.81268	232.504
58	1.9953	58934.8	6742.49	59319.2	6.5266	235.199
59	1.5849	59762.8	7569.55	60240.3	7.21863	238.034
60	1.2589	60456.8	8597.19	61065	8.09342	240.909
61	1	61255.7	9685.37	62016.6	8.98488	246.009
62	0.79433	62265.6	11041	63236.9	10.0553	249.204
63	0.63096	63081.3	12742.1	64355.3	11.4198	252.724
64	0.50119	64206.4	14785.6	65886.9	12.9682	256.59
65	0.39811	65339.5	17378.1	67611	14.8939	260.805
66	0.31623	66880.8	20289.9	69890.7	16.8765	265.615
67	0.25119	68296.4	24128.2	72433.2	19.4576	271.035
68	0.19953	70058.5	28191.8	75518	21.92	277.435
69	0.15849	72302.4	33446.4	79663.6	24.8248	284.885
70	0.12589	75540.6	39840.6	85402.9	27.8075	293.47
71	0.1	78461.6	46175.4	91040.6	30.4772	303.735