File: data/20200314/Z_p30_1.txt
Index	Frequency (Hz)	Z' (Ω)	-Z'' (Ω)	Z (Ω)	-Phase (°)	Time (s)
1	1000000	2537.06	4306.52	4998.28	59.4968	131.886
2	794330	3446.8	4690.17	5820.5	53.6879	133.396
3	630960	4649.13	5055.08	6867.92	47.3954	135.041
4	501190	5735.72	5429.84	7898.21	43.4308	136.646
5	398110	7212.84	5508.05	9075.45	37.367	142.806
6	316230	8348.11	5411.7	9948.74	32.9535	144.211
7	251190	9147.36	5043.17	10445.5	28.869	149.292
8	199530	10046	4826.65	11145.3	25.6622	150.702
9	158490	10838.6	4552.52	11755.9	22.7837	152.287
10	125890	11546.4	4235.2	12298.6	20.143	153.692
11	100000	12184.1	3924.65	12800.6	17.8544	155.152
12	79433	12735	3611.34	13237.1	15.8321	156.602
13	63096	13237	3297.53	13641.6	13.9885	158.057
14	50119	13689.7	2991.85	14012.8	12.328	159.577
15	39811	14075.5	2699.8	14332.1	10.8579	160.982
16	31623	14395.8	2462.58	14605	9.70718	162.482
17	25119	14700	2223.75	14867.3	8.60222	164.482
18	19953	14978	2031.68	15115.2	7.72467	166.007
19	15849	15157.5	1860.78	15271.3	6.99876	167.522
20	12589	15400.5	1725.64	15496.9	6.39336	168.977
21	10000	15552.4	1608.87	15635.4	5.90613	171.362
22	7943.3	15737.4	1506.3	15809.3	5.46739	172.742
23	6309.6	15913	1420.04	15976.2	5.09945	174.327
24	5011.9	16090.4	1357.16	16147.5	4.82124	175.822
25	3981.1	16246.2	1300.03	16298.1	4.5751	177.342
26	3162.3	16412.1	1264.2	16460.7	4.40472	178.827
27	2511.9	16570.8	1236.16	16616.9	4.26628	180.472
28	1995.3	16722.2	1217.36	16766.5	4.16374	181.972
29	1584.9	16886	1206.37	16929.1	4.08639	183.427
30	1258.9	17050.3	1199.29	17092.5	4.02345	184.887
31	1000	17219.9	1202.38	17261.8	3.99419	186.322
32	794.33	17377.5	1205.33	17419.3	3.96776	187.867
33	630.96	17555.6	1212.73	17597.5	3.95168	189.517
34	501.19	17725.4	1220.13	17767.3	3.93775	191.142
35	398.11	17908.2	1231.75	17950.5	3.93469	192.567
36	316.23	18094.4	1242.56	18137	3.92839	194.027
37	251.19	18265.8	1254.09	18308.8	3.92765	195.562
38	199.53	18455.8	1267.2	18499.2	3.92784	197.052
39	158.49	18644.3	1280.28	18688.2	3.92828	198.527
40	125.89	18832.3	1292.44	18876.6	3.92599	200.057
41	100	19039	1303.76	19083.6	3.91739	201.443
42	79.433	19219.7	1312.43	19264.5	3.9064	203.003
43	63.096	19432.5	1318.35	19477.2	3.88114	204.583
44	50.119	19582.5	1276.85	19624.1	3.73061	223.043
45	39.811	19832.2	1316.07	19875.8	3.79658	232.203
46	31.623	20024.9	1326.85	20068.8	3.79089	233.933
47	25.119	20245.5	1335.57	20289.5	3.77427	235.683
48	19.953	20436.6	1314.19	20478.9	3.67937	237.723
49	15.849	20621.6	1283.14	20661.5	3.56053	239.768
50	12.589	20846.8	1285.57	20886.4	3.52881	241.928
51	10	21026.9	1242.84	21063.6	3.38265	244.278
52	7.9433	21160.2	1222.09	21195.5	3.30541	246.853
53	6.3096	21373.9	1228.22	21409.2	3.28879	249.383
54	5.0119	21524.1	1216.28	21558.4	3.23422	251.973
55	3.9811	21708.7	1199.52	21741.8	3.16267	254.544
56	3.1623	21836.7	1204.72	21869.9	3.15779	257.294
57	2.5119	22531.6	1456.64	22578.6	3.69895	260.074
58	1.9953	23024	1460.13	23070.3	3.6287	262.924
59	1.5849	22163	1418.45	22208.3	3.66199	265.874
60	1.2589	22295.8	742.868	22308.1	1.90832	268.879
61	1	22477.1	1485.95	22526.2	3.78229	275.784
62	0.79433	22596.4	1628.23	22654.9	4.12146	279.099
63	0.63096	22718.6	1800.49	22789.8	4.53133	282.844
64	0.50119	22827.8	2055.26	22920.1	5.14466	286.829
65	0.39811	22957.3	2397	23082.1	5.96073	291.299
66	0.31623	23112.1	2809.48	23282.2	6.9308	296.339
67	0.25119	23217	3313.54	23452.2	8.12244	301.934
68	0.19953	23450.6	3900.78	23772.8	9.44413	308.42
69	0.15849	23653.2	4699.36	24115.5	11.2371	315.825
70	0.12589	23900.3	5779.25	24589.1	13.5936	324.5
71	0.1	24223.5	6959.39	25203.4	16.0293	336.05