File: data/20200314/Z_p32_1.txt
Index	Frequency (Hz)	Z' (Ω)	-Z'' (Ω)	Z (Ω)	-Phase (°)	Time (s)
1	1000000	2231.58	4155.66	4716.94	61.7643	17.6821
2	794330	3036.45	4568.81	5485.8	56.3918	19.2371
3	630960	4148.85	5090.82	6567.3	50.8211	20.7372
4	501190	5236	5479.9	7579.25	46.3039	22.2772
5	398110	6521.67	5957.01	8832.79	42.4091	28.3923
6	316230	7693.48	6151.61	9850.48	38.6454	29.7123
7	251190	8651.86	5926.44	10487	34.4108	34.7874
8	199530	9755.01	5906.26	11403.7	31.1932	36.1775
9	158490	10800.9	5785.18	12252.6	28.1745	37.6275
10	125890	11769	5609.2	13037.3	25.4829	39.0825
11	100000	12700.2	5371.98	13789.6	22.9276	40.6325
12	79433	13539	5099.5	14467.6	20.639	42.0226
13	63096	14331.6	4733.54	15093.1	18.2777	43.6026
14	50119	15061.6	4439.84	15702.3	16.4244	45.2576
15	39811	15712.4	4093.19	16236.8	14.6014	46.9477
16	31623	16259.8	3756.36	16688	13.0083	48.3977
17	25119	16765.6	3406	17108.1	11.4836	49.8477
18	19953	17181.1	3103.09	17459	10.2379	51.4777
19	15849	17575.1	2791.05	17795.3	9.02365	52.9078
20	12589	17912	2572.86	18095.9	8.17397	54.3978
21	10000	18155.6	2383.81	18311.4	7.48009	56.8628
22	7943.3	18437.1	2200.5	18568	6.80615	58.2579
23	6309.6	18688.2	2051.9	18800.5	6.26577	59.6579
24	5011.9	18916.9	1930.01	19015.1	5.82547	61.2279
25	3981.1	19150.1	1831.44	19237.5	5.46292	62.803
26	3162.3	19352.5	1766.86	19433	5.21656	64.258
27	2511.9	19567.2	1717.71	19642.4	5.01687	65.928
28	1995.3	19775.5	1689.9	19847.6	4.88429	67.493
29	1584.9	19991.2	1669.75	20060.8	4.77449	68.7781
30	1258.9	20199.6	1669.98	20268.5	4.72612	71.2881
31	1000	20413.8	1679.43	20482.8	4.70308	72.9031
32	794.33	20623.9	1699.21	20693.8	4.70997	74.5682
33	630.96	20851.5	1733.69	20923.4	4.75291	76.1282
34	501.19	21083.6	1778.49	21158.5	4.8217	77.7232
35	398.11	21331	1832.64	21409.6	4.91047	79.1783
36	316.23	21578.1	1896.71	21661.3	5.02337	80.8083
37	251.19	21846.2	1973.48	21935.2	5.16179	82.3933
38	199.53	22107	2062.25	22203	5.32939	84.0233
39	158.49	22385.1	2159.83	22489	5.51115	85.7534
40	125.89	22675.2	2272.7	22788.8	5.72356	87.4134
41	100	22990.8	2397.89	23115.6	5.95429	88.9184
42	79.433	23310.6	2535.04	23448	6.20656	90.5435
43	63.096	23622.1	2706.5	23776.7	6.53616	92.2885
44	50.119	25378.6	3197.16	25579.2	7.18023	110.774
45	39.811	24410.1	3056.75	24600.7	7.1377	119.909
46	31.623	24840.2	3303.38	25058.9	7.57505	121.684
47	25.119	25263.5	3568.36	25514.2	8.03961	123.329
48	19.953	25673.4	3825.44	25956.8	8.47497	125.469
49	15.849	26164	4133.99	26488.6	8.97869	127.639
50	12.589	26712.2	4488.32	27086.7	9.53804	129.829
51	10	27301.6	4874.09	27733.2	10.1223	132.294
52	7.9433	27953.8	5269.72	28446.1	10.6759	134.804
53	6.3096	28577.1	5777.93	29155.4	11.4304	137.424
54	5.0119	29266.1	6375.59	29952.5	12.2898	140.004
55	3.9811	29964	7039.54	30779.8	13.2209	142.634
56	3.1623	31110.9	7953.69	32111.5	14.3408	145.414
57	2.5119	31470.3	9486.7	32869.1	16.7754	148.285
58	1.9953	32678.8	7787.91	33594	13.4045	151.24
59	1.5849	34320.1	10405.1	35862.7	16.8661	154.14
60	1.2589	34866.6	13255.2	37301.2	20.8153	157.22
61	1	36427.2	13701.7	38918.8	20.6133	164.35
62	0.79433	37961.5	15427.4	40976.6	22.1166	167.7
63	0.63096	39604.4	17460	43282.4	23.7908	171.405
64	0.50119	41500.5	19820.8	45990.8	25.5293	175.295
65	0.39811	43500.7	22478.6	48965.3	27.3272	179.785
66	0.31623	45847.9	25764	52591	29.3336	184.71
67	0.25119	48735.9	29311.1	56871.2	31.0239	190.385
68	0.19953	51704.6	33780.3	61761.4	33.1579	196.955
69	0.15849	55177.3	38758.7	67429.8	35.0857	204.481
70	0.12589	59101.7	44115.5	73750.8	36.7389	213.201
71	0.1	62789.1	51167	80997.1	39.1767	223.576