File: data/20200314/Z_p31_1.txt
Index	Frequency (Hz)	Z' (Ω)	-Z'' (Ω)	Z (Ω)	-Phase (°)	Time (s)
1	1000000	2247	4062.38	4642.41	61.052	132.288
2	794330	3067.18	4478.09	5427.79	55.5916	133.833
3	630960	4138.65	4907.44	6419.61	49.8577	135.443
4	501190	5233.21	5395.56	7516.55	45.8751	137.063
5	398110	6569.8	5618.12	8644.4	40.5352	142.078
6	316230	7735.45	5565.6	9529.59	35.7347	143.523
7	251190	8641.38	5421.3	10201.2	32.1027	147.809
8	199530	9635.78	5278.9	10987	28.7158	149.244
9	158490	10555.6	5044.12	11698.9	25.5414	150.719
10	125890	11402.6	4754.94	12354.3	22.6363	152.149
11	100000	12165.2	4429.13	12946.4	20.0056	153.684
12	79433	12830.9	4089.39	13466.8	17.6778	155.154
13	63096	13430.1	3726.22	13937.4	15.5069	156.799
14	50119	13929.6	3372.84	14332.1	13.6113	158.279
15	39811	14362.5	3034.12	14679.5	11.9285	159.834
16	31623	14743.8	2721.41	14992.9	10.4579	161.224
17	25119	15038.8	2466.18	15239.7	9.3129	162.634
18	19953	15314.8	2213.11	15473.9	8.22275	164.064
19	15849	15568.9	2038.99	15701.9	7.46131	165.504
20	12589	15772	1861.55	15881.5	6.73141	167.024
21	10000	15955.8	1748.57	16051.3	6.25402	169.364
22	7943.3	16150.3	1641.75	16233.5	5.80443	170.624
23	6309.6	16340.2	1556.73	16414.2	5.44214	172.079
24	5011.9	16519.8	1492.68	16587.1	5.16306	173.454
25	3981.1	16700	1451.15	16763	4.96623	174.784
26	3162.3	16873.8	1422.26	16933.6	4.81795	176.239
27	2511.9	17044.8	1407.35	17102.8	4.7201	177.749
28	1995.3	17221.7	1405.42	17279	4.66544	179.209
29	1584.9	17409.8	1415.84	17467.2	4.64931	180.529
30	1258.9	17598.2	1433.52	17656.5	4.65693	181.844
31	1000	17784.3	1462.51	17844.4	4.70118	183.254
32	794.33	17980.2	1496.11	18042.3	4.75657	184.724
33	630.96	18190.2	1540.47	18255.4	4.84062	186.039
34	501.19	18398.1	1590.69	18466.8	4.94146	187.494
35	398.11	18620.4	1647.62	18693.1	5.05664	188.849
36	316.23	18857	1713.99	18934.8	5.19357	190.364
37	251.19	19097.1	1784.48	19180.3	5.33836	191.854
38	199.53	19346.5	1865.16	19436.2	5.50677	193.309
39	158.49	19612.3	1953.87	19709.4	5.68929	194.839
40	125.89	19883.4	2047.97	19988.6	5.88065	196.449
41	100	20174.5	2153.04	20289.1	6.09161	197.934
42	79.433	20475.7	2265.66	20600.7	6.31416	199.469
43	63.096	20779.5	2386.3	20916	6.55111	201.05
44	50.119	21038.4	2467.49	21182.6	6.68938	219.48
45	39.811	21508.8	2664.62	21673.2	7.06213	228.6
46	31.623	21881.2	2849.58	22066	7.41984	230.25
47	25.119	22296.1	2984.65	22495	7.62452	232.01
48	19.953	22699.9	3193.6	22923.5	8.00824	233.99
49	15.849	23135.5	3398.95	23383.8	8.35783	236.065
50	12.589	23570.7	3589.5	23842.4	8.65885	238.18
51	10	24073.5	3882.6	24384.6	9.16182	240.48
52	7.9433	24578.1	4097.88	24917.4	9.46579	242.975
53	6.3096	25164.9	4447.26	25554.9	10.0221	245.375
54	5.0119	25640.8	4782.95	26083.1	10.5663	247.965
55	3.9811	26259.5	5203.2	26770	11.2077	250.575
56	3.1623	26807.6	5572.38	27380.6	11.7426	253.145
57	2.5119	27957.1	6237.26	28644.4	12.5768	255.776
58	1.9953	28859.7	7110.89	29722.9	13.8417	258.566
59	1.5849	29042.1	7704.23	30046.6	14.8571	261.391
60	1.2589	30703.2	8793.06	31937.5	15.9811	264.556
61	1	30618.3	9336.19	32010.1	16.9576	271.456
62	0.79433	31548	10527.9	33258.2	18.4544	274.661
63	0.63096	32618.9	11916.1	34727.3	20.0679	278.261
64	0.50119	33675.8	13568.4	36306.5	21.9452	282.176
65	0.39811	34939.5	15704.1	38306.5	24.2022	286.541
66	0.31623	36325.4	18064.3	40569.1	26.4408	291.526
67	0.25119	37720.6	21108.9	43225.4	29.2319	297.141
68	0.19953	39531.2	24434.5	46473.2	31.7205	303.486
69	0.15849	41805	28479.6	50584.1	34.2646	311.612
70	0.12589	43802	33576.9	55190.8	37.4724	320.262
71	0.1	46989.4	39772.3	61561.7	40.2449	330.692