File: data/20200314/Z_p7_1.txt
Index	Frequency (Hz)	Z' (Ω)	-Z'' (Ω)	Z (Ω)	-Phase (°)	Time (s)
1	1000000	1526.83	7939.18	8084.67	79.114	42.1895
2	794330	3012.02	9687.21	10144.7	72.7281	43.7846
3	630960	5762.78	12024.5	13334.1	64.3937	45.1746
4	501190	8438.3	15031.3	17237.9	60.691	46.7246
5	398110	11743.4	18325.1	21765	57.3467	52.5847
6	316230	15999.7	20152.3	25731.4	51.5526	53.9398
7	251190	20487.8	19676.5	28406.3	43.8428	58.9049
8	199530	24714.4	19435.1	31440.9	38.1811	60.2049
9	158490	28314.7	18664.9	33913.1	33.3926	61.4899
10	125890	31564.6	17614.5	36146.8	29.1635	62.8299
11	100000	34496.1	16404	38197.8	25.4325	64.285
12	79433	36973.7	15082.5	39931.7	22.1918	65.655
13	63096	39732.3	13550.2	41979.3	18.8313	67.13
14	50119	41250.6	12414	43078.1	16.7487	68.56
15	39811	42970.9	11154.4	44395	14.5517	69.9001
16	31623	44162.9	9664.81	45208.1	12.3442	71.2501
17	25119	45519.3	8568.56	46318.7	10.6606	72.6051
18	19953	46593.2	7843.73	47248.8	9.55587	73.9451
19	15849	47314.3	6634.58	47777.2	7.98218	75.2702
20	12589	47952.2	5984.54	48324.2	7.11386	76.5802
21	10000	48542.6	5289.95	48830	6.21929	77.9102
22	7943.3	49109.4	4624.11	49326.6	5.37907	79.2102
23	6309.6	49580.3	4130.39	49752.1	4.76214	80.5103
24	5011.9	50011.5	3619.36	50142.3	4.13931	81.8153
25	3981.1	50355.2	3197.3	50456.6	3.63311	83.1003
26	3162.3	50715.5	2935.88	50800.4	3.31311	84.4253
27	2511.9	51016.2	2667.08	51085.9	2.99264	85.7554
28	1995.3	51294.9	2420.6	51352	2.70178	87.0704
29	1584.9	51556.8	2235.1	51605.2	2.48235	88.3354
30	1258.9	51778.2	2085.77	51820.2	2.30679	89.6204
31	1000	52050.2	1942.38	52086.5	2.13714	90.9205
32	794.33	52267.3	1814.96	52298.8	1.98877	92.3505
33	630.96	52484.8	1713.11	52512.8	1.86947	93.6705
34	501.19	52720.4	1624.4	52745.4	1.76481	95.0455
35	398.11	52921.8	1563.07	52944.9	1.69177	96.2955
36	316.23	53122.8	1510.35	53144.3	1.62855	97.7056
37	251.19	53278.9	1465.11	53299.1	1.57517	99.2106
38	199.53	53514.3	1429.89	53533.4	1.53056	100.486
39	158.49	53687.1	1410.64	53705.6	1.50511	102.481
40	125.89	53852	1392.43	53870	1.48115	103.921
41	100	54055	1406.66	54073.3	1.49066	105.216
42	79.433	54235.2	1407.99	54253.4	1.48711	106.666
43	63.096	54526.4	1359.96	54543.3	1.42874	108.191
44	50.119	54584.8	1499.38	54605.4	1.57345	109.631
45	39.811	54797.7	1541.45	54819.4	1.6113	118.746
46	31.623	55012.4	1624.42	55036.4	1.69136	120.366
47	25.119	55194.8	1741.93	55222.3	1.80764	121.941
48	19.953	55375.8	1891.33	55408.1	1.95614	123.856
49	15.849	55584.6	2066.2	55623	2.12883	125.831
50	12.589	55827.2	2263.88	55873.1	2.32216	127.776
51	10	56090.9	2478.64	56145.6	2.53024	130.096
52	7.9433	56390.4	2761.69	56458	2.80379	132.446
53	6.3096	56731.3	3097.97	56815.9	3.12569	134.761
54	5.0119	57059.1	3463.27	57164.1	3.47338	137.166
55	3.9811	57469.5	3902.41	57601.9	3.88465	139.576
56	3.1623	57902.9	4402.48	58070	4.34796	142.061
57	2.5119	58326.5	5039.56	58543.8	4.93824	144.591
58	1.9953	58917.6	5687.28	59191.4	5.51365	147.276
59	1.5849	59462.6	6495.6	59816.4	6.23418	150.002
60	1.2589	60135.3	7423.62	60591.8	7.03748	152.867
61	1	60804.5	8525.5	61399.3	7.98151	157.907
62	0.79433	61608	9782.07	62379.8	9.02206	161.137
63	0.63096	62522.8	11285.3	63533.1	10.2316	164.692
64	0.50119	63369.1	13068.2	64702.5	11.6524	168.477
65	0.39811	64435.8	15234.1	66212.1	13.3018	172.667
66	0.31623	65527.9	18077.8	67975.9	15.4231	177.457
67	0.25119	67300.4	21111.4	70533.9	17.416	182.902
68	0.19953	68978.7	24944.8	73350.6	19.8816	189.102
69	0.15849	70707.6	29303.6	76539.3	22.5108	196.347
70	0.12589	72299.2	35118.2	80377	25.9074	204.938
71	0.1	75709	42057.9	86606.7	29.0531	215.103