File: data/20200805/Z_p19_1.txt
Index	Frequency (Hz)	Z' (Ω)	-Z'' (Ω)	Z (Ω)	-Phase (°)	Time (s)
1	1000000	3202.43	9221.18	9761.44	70.8483	15.041
2	794330	5586.99	10137.6	11575.2	61.1401	16.7311
3	630960	8241.55	11473.4	14126.6	54.3096	18.4311
4	501190	10933.4	12794.9	16830	49.4858	20.1711
5	398110	14531.1	15531.9	21269.5	46.9065	24.2062
6	316230	17921.8	16412.7	24301.6	42.4833	25.5612
7	251190	20667.3	16589.2	26501.7	38.7533	28.9313
8	199530	23987.5	16807.9	29290	35.0188	30.1863
9	158490	27190	16625	31869.9	31.4432	31.5413
10	125890	30266.6	16103.1	34283.8	28.0148	32.8314
11	100000	33075.1	15341.7	36460	24.8839	34.1864
12	79433	35577.6	14311	38348	21.9123	35.4464
13	63096	37850.2	13219.1	40092.2	19.2517	36.7964
14	50119	39821.3	12041.5	41602.1	16.8247	38.1515
15	39811	41511.1	10833	42901.4	14.6261	39.4515
16	31623	42814	9593.9	43875.7	12.6304	40.7365
17	25119	43924.9	8700.33	44778.3	11.2037	42.0165
18	19953	44907.9	7885.14	45594.9	9.95875	43.3066
19	15849	45830.1	7140.41	46383	8.85559	44.5766
20	12589	46594.6	6509.33	47047.1	7.95283	45.8816
21	10000	47276	5934.12	47647	7.15439	48.1667
22	7943.3	47959.9	5511.21	48275.5	6.55528	49.3767
23	6309.6	48582.5	5167.19	48856.5	6.0711	50.7867
24	5011.9	49175.7	4888.66	49418.1	5.67725	52.1967
25	3981.1	49764.7	4668.13	49983.1	5.3589	53.4767
26	3162.3	50311.9	4499.06	50512.7	5.10998	54.9768
27	2511.9	50876.2	4370.64	51063.6	4.91008	56.3318
28	1995.3	51440.4	4282.99	51618.4	4.75954	57.6368
29	1584.9	51981.9	4220.42	52152.9	4.64167	58.8319
30	1258.9	52539.6	4182.49	52705.9	4.55151	60.2319
31	1000	53133.3	4164.31	53296.3	4.48138	61.6719
32	794.33	53694.7	4158.59	53855.5	4.42866	63.1319
33	630.96	54288.5	4166.84	54448.1	4.38906	64.497
34	501.19	54869.5	4175.98	55028.2	4.35225	65.932
35	398.11	55489.7	4191.86	55647.8	4.3201	67.182
36	316.23	56103.4	4213.92	56261.4	4.29541	68.642
37	251.19	56727.1	4229.62	56884.6	4.26413	69.9571
38	199.53	57346	4243.05	57502.7	4.23163	71.2071
39	158.49	57967.3	4248.4	58122.7	4.19169	72.6821
40	125.89	58594.6	4243.88	58748.1	4.14258	74.1421
41	100	59202.6	4235.61	59354	4.09221	75.4772
42	79.433	59832.4	4221.42	59981.1	4.03577	76.9622
43	63.096	60490.4	4186.83	60635.1	3.9594	78.3872
44	50.119	61127.8	4166.33	61269.6	3.89912	79.8122
45	39.811	61711.6	4133.68	61849.9	3.83217	88.9824
46	31.623	62343.6	4091.79	62477.7	3.7551	90.7574
47	25.119	62956.6	4036.58	63085.8	3.66861	92.4775
48	19.953	63570.5	3998.31	63696.1	3.59892	94.3425
49	15.849	64136.1	3932.92	64256.6	3.50906	96.3875
50	12.589	64696.2	3877.83	64812.3	3.43015	98.5576
51	10	65303.4	3807.21	65414.3	3.33659	100.883
52	7.9433	65837.5	3740.27	65943.7	3.25152	103.263
53	6.3096	66355.1	3657.61	66455.8	3.15505	105.953
54	5.0119	66876	3597.71	66972.7	3.07936	108.358
55	3.9811	67375.9	3526.99	67468.1	2.99658	110.998
56	3.1623	67836.6	3488.41	67926.2	2.94377	113.618
57	2.5119	68256	3474.02	68344.3	2.91366	116.288
58	1.9953	68712.2	3475.25	68800	2.89538	119.268
59	1.5849	69086	3530.23	69176.1	2.92522	122.323
60	1.2589	69487.9	3629.61	69582.7	2.99006	125.448
61	1	69887.1	3816.69	69991.2	3.12594	128.933
62	0.79433	70294.4	4026.85	70409.6	3.27863	132.478
63	0.63096	70767.2	4312.29	70898.5	3.48708	136.108
64	0.50119	71200	4698.36	71354.8	3.77537	140.163
65	0.39811	71641.9	5225.36	71832.2	4.17161	144.628
66	0.31623	72182.4	5789.81	72414.2	4.58592	149.454
67	0.25119	72705.9	6487.27	72994.8	5.09878	155.159
68	0.19953	73370.1	7278.82	73730.3	5.6656	161.529
69	0.15849	74050.3	8295.05	74513.5	6.39158	168.769
70	0.12589	74883.1	9543.14	75488.8	7.26265	177.509
71	0.1	75701	10753.3	76460.9	8.08478	187.794