File: data/20200805/Z_p18_1.txt
Index	Frequency (Hz)	Z' (Ω)	-Z'' (Ω)	Z (Ω)	-Phase (°)	Time (s)
1	1000000	3182.97	7502.36	8149.65	67.0103	130.586
2	794330	4951.32	8099.58	9493.09	58.5623	132.046
3	630960	6946.75	8904.09	11293.4	52.0395	133.396
4	501190	9064.32	9865.12	13397.1	47.4224	134.871
5	398110	11505	11574.3	16319.6	45.1719	138.031
6	316230	13813.3	12118.3	18375.6	41.2602	139.391
7	251190	15909.8	12339.6	20134.2	37.797	142.581
8	199530	18319.7	12584.2	22225.5	34.486	144.046
9	158490	20705.9	12534	24204	31.1879	145.572
10	125890	22985.8	12248.6	26045.7	28.0522	146.977
11	100000	25148.2	11762	27762.8	25.0658	148.507
12	79433	27104.3	11126.3	29299.1	22.318	149.882
13	63096	28862.2	10380.8	30672.2	19.782	151.297
14	50119	30463	9583.77	31935	17.4638	152.797
15	39811	31825.3	8746.31	33005.3	15.3668	154.192
16	31623	33005.9	7934.27	33946.2	13.5168	155.562
17	25119	34030.9	7186.19	34781.4	11.9238	157.027
18	19953	34903.7	6508.02	35505.3	10.5619	158.372
19	15849	35646.4	5908.22	36132.7	9.41095	159.667
20	12589	36348.1	5372.01	36742.9	8.40709	160.982
21	10000	36900	4886.09	37222.1	7.5429	162.262
22	7943.3	37465.2	4516.11	37736.4	6.87336	163.652
23	6309.6	37995.8	4211.78	38228.5	6.32533	164.897
24	5011.9	38480.1	3961.27	38683.4	5.87752	166.182
25	3981.1	38947.2	3759.28	39128.2	5.51325	167.502
26	3162.3	39373.9	3598.45	39538	5.22186	168.797
27	2511.9	39823.8	3481.46	39975.7	4.99618	170.257
28	1995.3	40252.4	3389.74	40394.9	4.81364	171.627
29	1584.9	40700.3	3334.72	40836.7	4.68398	172.887
30	1258.9	41127.6	3293.8	41259.2	4.57889	174.277
31	1000	41572.6	3275.97	41701.5	4.50567	175.562
32	794.33	42033.4	3270.09	42160.4	4.44851	176.967
33	630.96	42467.4	3275.23	42593.5	4.41012	178.282
34	501.19	42928.3	3290.64	43054.2	4.3834	179.612
35	398.11	43403.1	3308.52	43529.1	4.3591	180.862
36	316.23	43891.7	3329.04	44017.7	4.33739	182.172
37	251.19	44387.3	3352.56	44513.8	4.31933	183.562
38	199.53	44868.6	3372.37	44995.2	4.29833	184.782
39	158.49	45364.6	3387.66	45490.9	4.27071	186.122
40	125.89	45870	3396.86	45995.6	4.23526	187.547
41	100	46365.2	3394.57	46489.3	4.18737	188.947
42	79.433	46868	3399.37	46991.1	4.14844	190.332
43	63.096	47368.1	3403.98	47490.3	4.11033	191.777
44	50.119	47895.2	3375.88	48014	4.03181	193.202
45	39.811	48381.7	3357.53	48498.1	3.96977	202.398
46	31.623	48900.8	3331.21	49014.1	3.89707	204.003
47	25.119	49394.4	3303	49504.7	3.82567	205.768
48	19.953	49866.5	3286.47	49974.6	3.77065	207.663
49	15.849	50352.9	3248.73	50457.5	3.69157	209.598
50	12.589	50830.9	3217.53	50932.6	3.62192	211.623
51	10	51288.6	3167.13	51386.3	3.53359	214.023
52	7.9433	51756.8	3128.04	51851.2	3.45859	216.368
53	6.3096	52190.5	3077.21	52281.1	3.37431	218.748
54	5.0119	52646.9	3042.08	52734.7	3.30703	221.083
55	3.9811	53063	3000.78	53147.8	3.2367	223.528
56	3.1623	53466.4	2970.79	53548.9	3.18029	225.983
57	2.5119	53853.1	2972.23	53935	3.15903	228.588
58	1.9953	54196.2	2977.06	54277.9	3.14417	231.338
59	1.5849	54573.2	3023.58	54656.9	3.17118	234.063
60	1.2589	54878.2	3114.84	54966.5	3.24858	236.873
61	1	55212.5	3258.34	55308.6	3.37736	240.138
62	0.79433	55532.4	3446.64	55639.2	3.55154	243.328
63	0.63096	55867.1	3696	55989.2	3.785	246.808
64	0.50119	56221.7	4056.87	56367.9	4.12722	250.658
65	0.39811	56586.4	4490.11	56764.2	4.53689	254.964
66	0.31623	56961.1	5090.06	57188.1	5.1064	259.814
67	0.25119	57487.5	5762.07	57775.6	5.72374	265.309
68	0.19953	57971.4	6611.48	58347.2	6.50632	271.604
69	0.15849	58529.1	7573.9	59017.1	7.37333	278.899
70	0.12589	58947.4	8841.61	59606.8	8.53029	287.419
71	0.1	59799.4	10438.3	60703.6	9.90153	297.789