File: data/20200805/Z_p24_1.txt
Index	Frequency (Hz)	Z' (Ω)	-Z'' (Ω)	Z (Ω)	-Phase (°)	Time (s)
1	1000000	3390.85	6744.71	7549.1	63.3094	22.8782
2	794330	4903.62	7121.23	8646.24	55.449	24.3082
3	630960	6536	7756.78	10143.3	49.8819	25.7232
4	501190	8141.49	8503.53	11772.6	46.246	27.1633
5	398110	10407.1	9729.44	14246.8	43.0725	29.4983
6	316230	12241.7	10138.3	15894.8	39.6308	30.8083
7	251190	13865.5	10283.2	17262.6	36.562	33.0934
8	199530	15769.9	10579.1	18989.7	33.8555	34.4484
9	158490	17648.7	10712.2	20645.3	31.2565	35.8234
10	125890	19511.9	10725.8	22265.6	28.798	37.1084
11	100000	21346.2	10621.2	23842.6	26.4534	38.4835
12	79433	23136.8	10402.5	25367.7	24.2091	39.7585
13	63096	24875	10077.9	26838.9	22.055	41.1385
14	50119	26546.1	9635.74	28240.8	19.95	42.5135
15	39811	28119.3	9082.78	29549.8	17.9009	43.8486
16	31623	29494.6	8406.46	30669.2	15.9085	45.1236
17	25119	30709.4	7778.58	31679.3	14.2139	46.4336
18	19953	31845.5	7143.63	32636.9	12.6434	47.7736
19	15849	32839.7	6484.93	33473.8	11.1706	49.0637
20	12589	33693.5	5842.13	34196.2	9.83674	50.3787
21	10000	34397.6	5206.5	34789.4	8.6071	51.7487
22	7943.3	35044.9	4663.06	35353.8	7.57922	53.0087
23	6309.6	35594.2	4167.03	35837.3	6.67724	54.2638
24	5011.9	36091.6	3720.78	36282.9	5.88597	55.5988
25	3981.1	36488.1	3321.16	36638.9	5.20075	56.9188
26	3162.3	36869.9	2974.1	36989.6	4.61176	58.1888
27	2511.9	37201.1	2669.01	37296.7	4.10368	59.5589
28	1995.3	37471.9	2402.16	37548.8	3.66797	60.8839
29	1584.9	37746.2	2170.76	37808.6	3.29141	62.2389
30	1258.9	37978.4	1973.12	38029.6	2.97405	63.4889
31	1000	38206.6	1805.13	38249.2	2.70502	64.774
32	794.33	38398.6	1657.63	38434.3	2.47187	66.239
33	630.96	38588.3	1532.59	38618.7	2.2744	67.544
34	501.19	38769.6	1426.45	38795.8	2.10713	68.859
35	398.11	38919.3	1335.27	38942.2	1.96497	70.1841
36	316.23	39078.8	1262.25	39099.1	1.85001	71.5741
37	251.19	39222.2	1200.62	39240.6	1.75331	72.9241
38	199.53	39379.1	1152.53	39396	1.67643	74.2741
39	158.49	39502.2	1110.17	39517.8	1.60981	75.6392
40	125.89	39621.7	1083.26	39636.5	1.56607	77.0692
41	100	39749.8	1064.59	39764.1	1.53414	78.4342
42	79.433	39872.3	1051.79	39886.1	1.51105	79.8042
43	63.096	40019.2	1038.63	40032.6	1.48669	81.2243
44	50.119	40160.1	1058.83	40174	1.51026	82.6743
45	39.811	40282.9	1068.7	40297.1	1.51969	91.7995
46	31.623	40408.8	1091.38	40423.5	1.5471	93.4095
47	25.119	40542.8	1120.71	40558.3	1.5834	95.0695
48	19.953	40662.7	1176.46	40679.7	1.65723	96.9095
49	15.849	40819.9	1244.91	40838.9	1.74684	98.8546
50	12.589	40972.3	1323.05	40993.7	1.84951	100.815
51	10	41109.3	1428.92	41134.1	1.99075	103.115
52	7.9433	41261.4	1556.5	41290.8	2.16034	105.41
53	6.3096	41424.5	1701.68	41459.4	2.35233	107.75
54	5.0119	41611.5	1881.76	41654	2.58928	110.195
55	3.9811	41804.6	2093.2	41857	2.86646	112.575
56	3.1623	42027.8	2345	42093.2	3.19358	115.14
57	2.5119	42278.7	2644.02	42361.3	3.57849	117.775
58	1.9953	42499.9	3006.97	42606.2	4.04706	120.415
59	1.5849	42809.9	3405.97	42945.1	4.5489	123.21
60	1.2589	43081.1	3911.62	43258.3	5.18804	126.15
61	1	43364.7	4547.09	43602.5	5.98598	129.47
62	0.79433	43800.1	5247.56	44113.4	6.83187	132.755
63	0.63096	44101.1	6140.79	44526.6	7.92709	136.215
64	0.50119	44574.1	7241.17	45158.4	9.22723	140.13
65	0.39811	45009.1	8661.82	45835	10.8932	144.38
66	0.31623	45696.1	10262.8	46834.4	12.6579	149.191
67	0.25119	46232.2	12313.8	47844	14.9143	154.606
68	0.19953	46995	14626.5	49218.5	17.288	160.921
69	0.15849	48036.7	17653.4	51177.8	20.1783	168.181
70	0.12589	49736	21074.8	54016.8	22.964	176.651
71	0.1	50618.8	24934.5	56426.9	26.2246	186.876