File: data/20200805/Z_p20_1.txt
Index	Frequency (Hz)	Z' (Ω)	-Z'' (Ω)	Z (Ω)	-Phase (°)	Time (s)
1	1000000	2912.31	8066	8575.66	70.1473	15.1251
2	794330	4788	8894.49	10101.3	61.706	16.5951
3	630960	7016.47	10230.6	12405.5	55.5564	18.2101
4	501190	9111.59	11492.1	14665.9	51.5905	19.7852
5	398110	12119.6	14021.6	18533.5	49.1614	23.2602
6	316230	14893.1	15074.6	21190.7	45.3471	24.7803
7	251190	17526.6	15562.4	23438.7	41.6028	28.4053
8	199530	20575.5	16157.3	26161.2	38.1413	29.7853
9	158490	23656.2	16400.2	28785.1	34.7325	31.1054
10	125890	26687.2	16319.8	31281.6	31.4467	32.5254
11	100000	29627.9	15955.3	33650.9	28.3035	33.9804
12	79433	32344.1	15319.7	35788.7	25.3445	35.3654
13	63096	34912.9	14535.2	37817.8	22.6033	36.8755
14	50119	37235	13580.1	39634.1	20.0376	38.4355
15	39811	39363.8	12502	41301.5	17.62	39.9405
16	31623	41033.4	11337.4	42570.8	15.4454	41.3306
17	25119	42479.5	10395.4	43732.9	13.751	42.7956
18	19953	43851.3	9533.74	44875.7	12.2658	44.0956
19	15849	45068.8	8704.03	45901.6	10.9308	45.5506
20	12589	46088.3	7953.66	46769.6	9.79133	46.9307
21	10000	47018.2	7252.09	47574.1	8.76822	49.1957
22	7943.3	47864.5	6695.56	48330.5	7.96319	50.6257
23	6309.6	48666.4	6213.96	49061.5	7.27643	52.0908
24	5011.9	49420.4	5809.07	49760.6	6.70401	53.5708
25	3981.1	50090.3	5459.76	50387	6.22059	54.8508
26	3162.3	50741.6	5176.96	51005.1	5.82549	56.1108
27	2511.9	51382.6	4952.43	51620.7	5.50535	57.4959
28	1995.3	51983.6	4760.73	52201.2	5.23263	58.8559
29	1584.9	52591.7	4620.45	52794.2	5.02085	60.1959
30	1258.9	53180.2	4508.51	53371	4.84584	61.4109
31	1000	53774.2	4427.55	53956.1	4.70689	62.881
32	794.33	54374.7	4370.65	54550.1	4.59556	64.461
33	630.96	54959.3	4329.22	55129.6	4.50397	65.841
34	501.19	55587.9	4304.47	55754.3	4.42789	67.281
35	398.11	56199.2	4288.44	56362.6	4.36366	68.5161
36	316.23	56803.5	4279.56	56964.5	4.30851	69.9311
37	251.19	57445.6	4274.95	57604.5	4.25595	71.2661
38	199.53	58017.7	4273.51	58174.8	4.21273	72.5261
39	158.49	58640.1	4254.14	58794.2	4.14934	73.8612
40	125.89	59265.6	4245.87	59417.5	4.09775	75.2262
41	100	59889.1	4234.15	60038.6	4.04407	76.6162
42	79.433	60508.7	4213.02	60655.2	3.98288	78.0162
43	63.096	61146.4	4166.49	61288.2	3.89808	79.4913
44	50.119	61745.6	4152.03	61885.1	3.84701	80.9563
45	39.811	62380.1	4115.54	62515.7	3.77463	90.2765
46	31.623	62988.2	4070.57	63119.6	3.69756	92.0865
47	25.119	63602.3	4007.15	63728.4	3.60506	93.6615
48	19.953	64174.1	3976.35	64297.2	3.54562	95.5866
49	15.849	64770.5	3920.08	64889	3.46346	97.7416
50	12.589	65336.4	3860.14	65450.3	3.38116	99.7666
51	10	65865.6	3800.62	65975.2	3.30245	102.167
52	7.9433	66436.5	3742.68	66541.9	3.22433	104.647
53	6.3096	66964.1	3668.8	67064.5	3.13596	107.097
54	5.0119	67456.1	3619.21	67553.1	3.07114	109.542
55	3.9811	67961.8	3567.6	68055.4	3.00494	112.107
56	3.1623	68423.8	3551.54	68515.9	2.97127	114.767
57	2.5119	68854.2	3541.59	68945.2	2.94448	117.272
58	1.9953	69258	3591.78	69351.1	2.96875	119.932
59	1.5849	69691.8	3670.69	69788.4	3.015	122.712
60	1.2589	70058.4	3827.63	70162.9	3.12724	125.797
61	1	70430.2	4050.9	70546.6	3.29183	129.192
62	0.79433	70890.7	4349	71024	3.51058	132.542
63	0.63096	71223.9	4761.27	71382.9	3.82449	136.082
64	0.50119	71702.9	5279.09	71897	4.21077	139.827
65	0.39811	72145.3	6012.3	72395.4	4.76379	144.212
66	0.31623	72721.6	6834.51	73042	5.369	149.053
67	0.25119	73262.1	7870.77	73683.7	6.13194	154.603
68	0.19953	73998.3	8985.75	74541.9	6.92363	160.963
69	0.15849	74800.6	10428.7	75524.1	7.93698	168.388
70	0.12589	75985.3	12186	76956.3	9.1111	176.918
71	0.1	76954.8	13844.5	78190.2	10.1987	187.233