File: data/20200805/Z_p22_1.txt
Index	Frequency (Hz)	Z' (Ω)	-Z'' (Ω)	Z (Ω)	-Phase (°)	Time (s)
1	1000000	4085.04	6603.6	7764.99	58.2587	15.7051
2	794330	5595.71	6555.51	8618.97	49.5163	17.1601
3	630960	7284.16	6790.75	9958.58	42.9923	18.4701
4	501190	8857.46	7060.83	11327.4	38.5605	19.9301
5	398110	10948.1	7528.98	13287.1	34.5162	23.1052
6	316230	12431.6	7418.38	14476.8	30.826	24.3852
7	251190	13624.6	6955.66	15297.4	27.0453	26.6253
8	199530	14947	6638.71	16355	23.9484	28.1003
9	158490	16104.9	6204.96	17258.9	21.0708	29.3553
10	125890	17124.7	5701.98	18049.1	18.4161	30.6353
11	100000	17987.9	5167.09	18715.3	16.0269	31.9804
12	79433	18730.7	4630.73	19294.6	13.8866	33.2704
13	63096	19340.3	4111.47	19772.5	12.0016	34.6304
14	50119	19862.9	3620.27	20190.1	10.3295	35.9154
15	39811	20300.7	3158.27	20544.9	8.84287	37.2005
16	31623	20628.9	2733.07	20809.2	7.54703	38.4655
17	25119	20890	2401.62	21027.6	6.55822	39.8005
18	19953	21129.8	2103.5	21234.3	5.68514	41.0505
19	15849	21337.5	1842.48	21416.9	4.93522	42.3306
20	12589	21508.4	1617.83	21569.2	4.30161	43.7706
21	10000	21638.9	1412.24	21684.9	3.73406	45.0756
22	7943.3	21791.9	1258.79	21828.2	3.30597	46.3956
23	6309.6	21916.5	1127.56	21945.5	2.94517	47.6707
24	5011.9	22038.3	1016.05	22061.7	2.6397	48.9407
25	3981.1	22139.5	920.094	22158.6	2.37978	50.2107
26	3162.3	22240.8	842.787	22256.7	2.17011	51.5307
27	2511.9	22332	772.538	22345.4	1.98126	52.8057
28	1995.3	22425.6	713.331	22436.9	1.82189	54.1458
29	1584.9	22503.6	661.356	22513.3	1.68337	55.3908
30	1258.9	22586.1	617.44	22594.5	1.56592	56.6408
31	1000	22665.1	578.726	22672.5	1.46266	57.8958
32	794.33	22732.3	542.383	22738.8	1.36679	59.3059
33	630.96	22802.3	511.985	22808.1	1.28626	60.5909
34	501.19	22873.3	481.822	22878.4	1.20675	61.8509
35	398.11	22936.8	456.873	22941.4	1.14111	63.1959
36	316.23	22989	433.049	22993	1.07917	64.501
37	251.19	23060.5	410.098	23064.1	1.01882	65.796
38	199.53	23096.6	390.385	23099.9	0.968336	67.076
39	158.49	23155.5	370.881	23158.4	0.917628	68.396
40	125.89	23188.6	354.081	23191.3	0.874818	69.9211
41	100	23238	338.039	23240.5	0.833411	71.2561
42	79.433	23280	325.018	23282.3	0.79987	72.6511
43	63.096	23319.5	314.406	23321.7	0.772444	74.1911
44	50.119	23379.8	309.678	23381.9	0.758868	92.5115
45	39.811	23377.6	299.072	23379.5	0.73295	101.652
46	31.623	23428.1	287.635	23429.8	0.703407	103.232
47	25.119	23453.2	308.386	23455.2	0.753337	104.892
48	19.953	23486.8	306.577	23488.8	0.747849	106.857
49	15.849	23525.5	313.505	23527.6	0.763488	108.837
50	12.589	23566.8	334.925	23569.2	0.814217	111.042
51	10	23591.1	347.632	23593.7	0.844232	113.322
52	7.9433	23628.4	375.854	23631.4	0.911319	115.552
53	6.3096	23672	426.929	23675.8	1.03323	117.992
54	5.0119	23717.9	475.266	23722.7	1.14795	120.317
55	3.9811	23752.8	503.917	23758.1	1.21535	122.742
56	3.1623	23795	598.952	23802.5	1.44191	125.277
57	2.5119	23846.2	611.597	23854	1.46918	127.822
58	1.9953	23912	711.334	23922.6	1.70393	130.397
59	1.5849	24020.9	825.09	24035	1.96727	133.062
60	1.2589	24078.1	1038.26	24100.5	2.4691	136.032
61	1	24151.3	1155.76	24179	2.73979	139.377
62	0.79433	24281.4	1337.16	24318.2	3.15205	142.622
63	0.63096	24390.8	1542.63	24439.5	3.61893	146.112
64	0.50119	24504.3	1804.85	24570.7	4.21247	150.033
65	0.39811	24647.8	2101.21	24737.2	4.87263	154.248
66	0.31623	24797.3	2497.42	24922.8	5.75105	159.013
67	0.25119	25018.2	2894.57	25185.1	6.59971	164.443
68	0.19953	25221.2	3409.8	25450.7	7.69945	170.688
69	0.15849	25415.9	4021.15	25732	8.99048	177.933
70	0.12589	25646.8	4906.27	26111.8	10.8299	186.453
71	0.1	26040.5	5756.77	26669.3	12.4659	196.668