File: data/20200805/Z_p25_1.txt
Index	Frequency (Hz)	Z' (Ω)	-Z'' (Ω)	Z (Ω)	-Phase (°)	Time (s)
1	1000000	3578.2	8161.35	8911.29	66.3258	18.2761
2	794330	5482.08	8601.32	10199.8	57.4885	19.7011
3	630960	7614.86	9479.46	12159.2	51.225	21.2912
4	501190	9767.78	10399.9	14267.7	46.7954	22.9362
5	398110	12638	12306.8	17640.2	44.2394	26.3262
6	316230	14937.6	12873	19719.2	40.7544	27.9363
7	251190	17082.2	13155.8	21561	37.6016	31.7313
8	199530	19515.7	13556.9	23762.4	34.7864	33.0864
9	158490	21928.1	13740	25877.2	32.071	34.5264
10	125890	24325.8	13770.8	27953.2	29.5142	36.0714
11	100000	26664.9	13657.2	29958.9	27.1205	37.6315
12	79433	28955.3	13408.1	31909	24.847	39.1365
13	63096	31180.3	13013.2	33786.9	22.6534	40.7915
14	50119	33355.8	12499	35620.7	20.5418	42.2565
15	39811	35406.6	11837.3	37333	18.486	43.7066
16	31623	37191.8	11000.1	38784.4	16.4764	45.1116
17	25119	38779.9	10273.6	40117.7	14.838	46.6766
18	19953	40275.4	9492.64	41379	13.2622	48.2567
19	15849	41611.2	8682.74	42507.5	11.7864	49.8117
20	12589	42798.2	7911.88	43523.3	10.4737	51.3917
21	10000	43768.8	7104.01	44341.6	9.21915	53.9168
22	7943.3	44690.4	6414.16	45148.4	8.16756	55.2968
23	6309.6	45499.6	5780.63	45865.3	7.24053	56.7518
24	5011.9	46188.9	5204.4	46481.2	6.42878	58.1768
25	3981.1	46806.3	4678.92	47039.6	5.70852	59.4419
26	3162.3	47323.4	4208.91	47510.2	5.08248	60.8319
27	2511.9	47826.4	3795.35	47976.8	4.5373	62.3119
28	1995.3	48241.4	3438.65	48363.8	4.07714	63.8319
29	1584.9	48613.3	3116.98	48713.2	3.66865	65.292
30	1258.9	48979.2	2840.78	49061.5	3.31942	66.757
31	1000	49306.6	2604.7	49375.4	3.02393	68.212
32	794.33	49581.9	2391.93	49639.6	2.76192	69.687
33	630.96	49819.8	2218.68	49869.2	2.54993	73.0271
34	501.19	50098.1	2074.17	50141	2.37082	74.5771
35	398.11	50352.8	1956.44	50390.8	2.22509	76.0822
36	316.23	50564.5	1853.09	50598.5	2.09883	77.5872
37	251.19	50771.2	1780.05	50802.4	2.00798	79.2472
38	199.53	50990.1	1721.99	51019.2	1.93421	80.8873
39	158.49	51184	1690.12	51211.9	1.89124	82.3623
40	125.89	51353.1	1664.24	51380.1	1.85618	84.0723
41	100	51537.7	1662.67	51564.5	1.8478	85.7023
42	79.433	51745.3	1682.62	51772.6	1.86245	87.4124
43	63.096	51957.7	1759.21	51987.5	1.93921	89.4724
44	50.119	52149	1783.22	52179.5	1.95845	91.3425
45	39.811	52376	1863.95	52409.1	2.03817	100.633
46	31.623	52577.8	1969.82	52614.7	2.14558	102.443
47	25.119	52797	2099.61	52838.7	2.27732	104.363
48	19.953	53031.3	2269.24	53079.8	2.45022	106.543
49	15.849	53278.5	2467.03	53335.6	2.65115	108.498
50	12.589	53547.5	2706.82	53615.8	2.89384	110.798
51	10	53836.8	2999.15	53920.2	3.18855	113.273
52	7.9433	54173.3	3347.88	54276.6	3.53636	115.808
53	6.3096	54504	3743.19	54632.4	3.92875	118.323
54	5.0119	54925.8	4208.7	55086.8	4.38175	120.908
55	3.9811	55371.2	4766.95	55576	4.92051	123.353
56	3.1623	55883	5400.2	56143.3	5.51959	125.913
57	2.5119	56426.9	6146.29	56760.7	6.21643	128.763
58	1.9953	57029.8	7022.26	57460.5	7.01967	131.558
59	1.5849	57774	8006.8	58326.2	7.89026	134.323
60	1.2589	58525.1	9160.41	59237.7	8.89582	137.518
61	1	59377.2	10607.9	60317.3	10.1292	141.203
62	0.79433	60341.5	12184.6	61559.5	11.4161	148.379
63	0.63096	61402.5	14138.9	63009.3	12.9672	152.874
64	0.50119	62608.9	16541	64757.1	14.7991	156.734
65	0.39811	63945.3	19417.5	66828.5	16.8914	160.894
66	0.31623	65784.8	22749	69607.2	19.0758	165.739
67	0.25119	67450.4	26785.6	72574.3	21.6588	171.159
68	0.19953	69709	31242.4	76390	24.1412	177.444
69	0.15849	72486.6	37136.8	81446	27.1273	184.694
70	0.12589	76330.8	43687.3	87948.7	29.7843	193.194
71	0.1	80412.6	50908.4	95172.7	32.3375	204.46