File: data/20200805/Z_p26_1.txt
Index	Frequency (Hz)	Z' (Ω)	-Z'' (Ω)	Z (Ω)	-Phase (°)	Time (s)
1	1000000	3685.21	8794.1	9535.04	67.2636	52.9468
2	794330	5877.92	9275.61	10981.2	57.6377	54.5868
3	630960	8203.25	10113	13021.8	50.9525	56.1968
4	501190	10664.7	11079.4	15378.2	46.0927	58.1519
5	398110	13949.3	13055.2	19105.6	43.1037	61.7519
6	316230	16463.2	13557.3	21326.9	39.4711	63.152
7	251190	18825.9	13513	23173.6	35.6703	68.3171
8	199530	21408.6	13626.2	25377.2	32.476	69.9971
9	158490	23896.2	13486.4	27439.3	29.4393	71.4921
10	125890	26288.4	13138.1	29388.6	26.5545	73.0621
11	100000	28550.6	12648.5	31227	23.8943	74.9522
12	79433	30610.5	12001	32879	21.4079	76.7422
13	63096	32578.8	11259.4	34469.6	19.0653	78.5072
14	50119	34342.4	10429.3	35891.1	16.8928	80.3623
15	39811	35947.5	9485.05	37177.8	14.7811	82.1423
16	31623	37195.6	8447.28	38142.8	12.7951	83.9874
17	25119	38277.2	7644.25	39033.1	11.2938	85.7824
18	19953	39250.7	6817.56	39838.4	9.85355	87.3874
19	15849	40063.5	6052.93	40518.2	8.59145	88.9524
20	12589	40771.2	5348.14	41120.5	7.47308	90.7525
21	10000	41337.8	4692.58	41603.3	6.47637	92.4025
22	7943.3	41867.4	4154.5	42073	5.66691	94.0875
23	6309.6	42306	3679.61	42465.8	4.97084	95.8626
24	5011.9	42688.8	3268.94	42813.8	4.37894	97.5526
25	3981.1	43046.2	2912.47	43144.6	3.87069	99.1626
26	3162.3	43326.7	2604.12	43404.9	3.43958	101.073
27	2511.9	43589.6	2344.04	43652.6	3.07813	102.853
28	1995.3	43860.8	2122.53	43912.1	2.77052	104.573
29	1584.9	44076	1934.12	44118.4	2.51261	106.063
30	1258.9	44285.5	1775.42	44321	2.29578	107.488
31	1000	44484.6	1639.65	44514.8	2.1109	110.178
32	794.33	44661	1523.54	44687	1.9538	111.828
33	630.96	44848.1	1428.24	44870.8	1.82404	113.438
34	501.19	45024.2	1351.57	45044.5	1.71943	115.158
35	398.11	45158.2	1286.31	45176.5	1.6316	116.858
36	316.23	45321.2	1233.06	45337.9	1.55846	118.638
37	251.19	45462.7	1191.21	45478.3	1.50091	120.278
38	199.53	45612.7	1166.54	45627.6	1.46501	121.768
39	158.49	45745.4	1152.05	45759.9	1.44263	123.368
40	125.89	45889	1138.39	45903.1	1.42107	124.993
41	100	46019.2	1145.2	46033.5	1.42553	126.503
42	79.433	46152.2	1169.15	46167	1.45113	128.138
43	63.096	46293.6	1209.24	46309.4	1.49629	129.818
44	50.119	46424.6	1249.47	46441.5	1.54168	131.408
45	39.811	46571.1	1310.68	46589.5	1.61208	141.033
46	31.623	46728.4	1393.68	46749.2	1.70835	143.353
47	25.119	46892	1490.45	46915.6	1.82052	145.218
48	19.953	47040.6	1631.32	47068.9	1.98616	147.519
49	15.849	47211.7	1782.31	47245.3	2.16198	149.999
50	12.589	47417.2	1974.91	47458.3	2.38498	152.629
51	10	47638.5	2194.8	47689	2.63786	156.994
52	7.9433	47886.4	2449.47	47949	2.92822	162.394
53	6.3096	48153.8	2752.93	48232.4	3.27202	165.589
54	5.0119	48414.5	3102.45	48513.8	3.66655	169.059
55	3.9811	48755.6	3519.62	48882.5	4.12897	171.874
56	3.1623	49091.8	3998.78	49254.3	4.65676	182.369
57	2.5119	49502.1	4553.16	49711	5.25523	188.069
58	1.9953	49905.8	5220.38	50178.1	5.97169	192.129
59	1.5849	50370.5	6010.72	50727.8	6.80495	196.799
60	1.2589	50902.3	6952.05	51374.8	7.77714	203.005
61	1	51453.9	8076.96	52084	8.92118	208.835
62	0.79433	52118.3	9460.94	52970.1	10.2888	215.53
63	0.63096	52888.7	11104.2	54041.8	11.8573	220.66
64	0.50119	53775.1	13011.8	55326.9	13.6023	227.825
65	0.39811	54699.3	15371.6	56818.2	15.6964	235.495
66	0.31623	55698.4	18131.5	58575.2	18.0316	243.24
67	0.25119	57102.5	21495.1	61014.2	20.6278	253.465
68	0.19953	58721.5	25588.2	64054.5	23.5454	271.891
69	0.15849	60647.4	30499.2	67884.5	26.6975	285.371
70	0.12589	62734.3	36648.1	72654.5	30.2926	299.061
71	0.1	65392.1	43648.7	78621.4	33.7228	315.257