File: data/20200805/Z_p21_1.txt
Index	Frequency (Hz)	Z' (Ω)	-Z'' (Ω)	Z (Ω)	-Phase (°)	Time (s)
1	1000000	3767.51	6033.97	7113.57	58.0201	16.5221
2	794330	5165.43	6209.84	8077.36	50.2458	17.9021
3	630960	6630.55	6528.02	9304.8	44.5536	19.2471
4	501190	8004.69	6886.77	10559.5	40.7068	20.7471
5	398110	10052.9	7434.31	12503.2	36.4835	23.9672
6	316230	11487.1	7353.33	13639.1	32.6248	25.2072
7	251190	12715.6	7147.69	14586.8	29.3412	27.4223
8	199530	14082.8	6967.75	15712.3	26.3248	28.7373
9	158490	15341	6663.16	16725.6	23.477	30.1323
10	125890	16481.5	6256.99	17629.2	20.7887	31.3923
11	100000	17488.7	5793.6	18423.3	18.3288	32.7524
12	79433	18374.2	5286.68	19119.6	16.0517	34.0324
13	63096	19142.6	4780.66	19730.5	14.0222	35.4124
14	50119	19796.9	4269.08	20251.9	12.1691	36.7574
15	39811	20346.3	3775.79	20693.7	10.5131	38.0875
16	31623	20793.4	3299.54	21053.6	9.01661	39.4025
17	25119	21151.7	2919.47	21352.3	7.8586	40.6575
18	19953	21472.2	2566.96	21625.1	6.81726	41.9325
19	15849	21738.2	2251.76	21854.5	5.91389	43.2026
20	12589	21970.4	1976.5	22059.1	5.14062	44.4776
21	10000	22130.4	1720.92	22197.2	4.44652	45.8276
22	7943.3	22329.3	1526.51	22381.4	3.91086	47.1176
23	6309.6	22469.7	1355.68	22510.6	3.45269	48.4877
24	5011.9	22602.3	1211.93	22634.8	3.06925	49.7527
25	3981.1	22728.4	1087.22	22754.4	2.73866	51.0227
26	3162.3	22843.4	989.159	22864.8	2.47946	52.3527
27	2511.9	22948.9	896.583	22966.4	2.23733	53.6628
28	1995.3	23035	821.683	23049.7	2.04293	54.8978
29	1584.9	23136.7	758.649	23149.1	1.87805	56.1578
30	1258.9	23222.8	702.054	23233.4	1.7316	57.4628
31	1000	23292	657.43	23301.3	1.61678	58.7228
32	794.33	23381.9	618.909	23390.1	1.51624	60.0829
33	630.96	23458.7	584.134	23465.9	1.4264	61.4079
34	501.19	23519.1	555.547	23525.7	1.35314	62.7029
35	398.11	23596.4	531.627	23602.4	1.29065	63.9929
36	316.23	23669.2	512.626	23674.8	1.24071	65.268
37	251.19	23733.1	494.678	23738.2	1.19407	66.548
38	199.53	23784.4	482.173	23789.3	1.16138	67.848
39	158.49	23844.1	473.475	23848.8	1.13758	69.178
40	125.89	23900.4	466.738	23905	1.11875	70.5381
41	100	23951.7	466.456	23956.3	1.11568	71.9081
42	79.433	24013.4	468.765	24018	1.11833	73.3481
43	63.096	24050	479.389	24054.8	1.14193	74.7881
44	50.119	24115.5	530.793	24121.3	1.2609	93.0385
45	39.811	24165.3	505.854	24170.6	1.1992	102.054
46	31.623	24221.1	532.601	24227	1.25968	103.664
47	25.119	24266.1	570.639	24272.8	1.34712	105.339
48	19.953	24332.8	622.712	24340.8	1.46596	107.224
49	15.849	24399.2	692.202	24409	1.62504	109.194
50	12.589	24459.6	769.308	24471.7	1.80148	111.249
51	10	24539.7	840.469	24554.1	1.96157	113.544
52	7.9433	24636.4	935.141	24654.1	2.17377	115.799
53	6.3096	24757.2	1063.52	24780.1	2.45979	118.219
54	5.0119	24842.3	1186.7	24870.6	2.73491	120.644
55	3.9811	24986.6	1358.73	25023.5	3.11259	123.114
56	3.1623	25108.2	1552.74	25156.2	3.53877	125.624
57	2.5119	25283.1	1761.67	25344.4	3.9858	128.189
58	1.9953	25434	2008.65	25513.2	4.51555	130.809
59	1.5849	25700.8	2273.52	25801.2	5.05528	133.559
60	1.2589	25978.7	2636.33	26112.1	5.79456	136.409
61	1	26255.3	2964.44	26422.1	6.44188	139.719
62	0.79433	26609.8	3370.72	26822.4	7.21932	142.934
63	0.63096	26956.9	3805.59	27224.2	8.0355	146.504
64	0.50119	27357.8	4363.15	27703.5	9.06148	150.34
65	0.39811	27744.4	4972.6	28186.5	10.1612	154.62
66	0.31623	28255.4	5739.15	28832.4	11.4815	159.44
67	0.25119	28732.1	6498.09	29457.7	12.7437	164.835
68	0.19953	29298	7453.57	30231.2	14.2736	171.12
69	0.15849	29841.4	8673.77	31076.4	16.2072	178.45
70	0.12589	30600.6	10283.3	32282.2	18.5749	187.01
71	0.1	31354.4	11740.3	33480.4	20.5279	197.195