File: data/20200805/Z_p23_1.txt
Index	Frequency (Hz)	Z' (Ω)	-Z'' (Ω)	Z (Ω)	-Phase (°)	Time (s)
1	1000000	3807.47	7855.53	8729.61	64.1411	17.1011
2	794330	5722.87	8145.21	9954.68	54.9079	18.5761
3	630960	7792.95	8801.21	11755.5	48.477	20.0861
4	501190	9902.67	9404.49	13656.8	43.5219	22.0062
5	398110	12638.7	10875.1	16673.5	40.7106	24.6762
6	316230	14695.6	11069.5	18398.2	36.9892	26.3562
7	251190	16539.4	11045.1	19888.3	33.7353	30.1213
8	199530	18598.6	11086.6	21652.3	30.799	31.4713
9	158490	20591.7	10968.2	23330.6	28.042	32.9814
10	125890	22478.1	10707.6	24898.1	25.4711	34.4564
11	100000	24260.2	10331.7	26368.6	23.0678	35.9464
12	79433	25956.1	9867.31	27768.3	20.8145	37.4215
13	63096	27534.1	9332.85	29072.8	18.7244	39.2015
14	50119	28991.2	8718.47	30273.8	16.7375	40.8115
15	39811	30333.8	8041.31	31381.5	14.8473	42.9166
16	31623	31458.9	7291.77	32292.9	13.05	44.4966
17	25119	32414.8	6649.52	33089.8	11.5928	46.1666
18	19953	33323.7	6025.62	33864.1	10.2495	47.7566
19	15849	34089.4	5401.26	34514.7	9.00332	49.3617
20	12589	34751.4	4839.4	35086.8	7.92789	50.9317
21	10000	35293	4279.83	35551.6	6.91425	52.4517
22	7943.3	35803.9	3820.08	36007.1	6.0901	53.8568
23	6309.6	36254.9	3410.29	36415	5.37367	55.3218
24	5011.9	36612.2	3041.67	36738.3	4.74911	56.8218
25	3981.1	36962.1	2723.12	37062.3	4.21355	58.2018
26	3162.3	37248.9	2442.33	37328.8	3.7514	59.4519
27	2511.9	37521.8	2200.02	37586.3	3.35559	60.8469
28	1995.3	37757.6	1990.4	37810	3.01756	62.3069
29	1584.9	37971.9	1809.04	38014.9	2.72759	63.7819
30	1258.9	38173.2	1652.73	38209	2.4791	65.302
31	1000	38351.1	1519.4	38381.2	2.26877	66.877
32	794.33	38529.2	1404.65	38554.8	2.08789	68.567
33	630.96	38692.7	1307.14	38714.8	1.93486	70.1371
34	501.19	38828	1226.19	38847.3	1.8088	71.7171
35	398.11	38975.6	1160.39	38992.9	1.70531	73.2721
36	316.23	39115.8	1100.29	39131.2	1.61124	74.9071
37	251.19	39253	1056.27	39267.2	1.54142	76.4772
38	199.53	39370.3	1021.06	39383.5	1.48562	78.1122
39	158.49	39490.1	999.579	39502.7	1.44997	79.8172
40	125.89	39591.7	979.343	39603.8	1.41698	81.5073
41	100	39724.2	973.196	39736.1	1.4034	83.1573
42	79.433	39834.4	974.339	39846.3	1.40116	84.8773
43	63.096	39924.4	997.353	39936.9	1.43101	86.5874
44	50.119	40074.7	1012.59	40087.5	1.44742	88.2724
45	39.811	40184.4	1043.01	40197.9	1.48681	97.7026
46	31.623	40320.2	1093.27	40335.1	1.55317	99.5626
47	25.119	40428.1	1149.4	40444.5	1.62852	101.243
48	19.953	40582.1	1238.2	40601	1.74761	103.248
49	15.849	40703.6	1333.03	40725.4	1.87575	105.448
50	12.589	40862.4	1448.06	40888.1	2.02956	107.978
51	10	41023.4	1588.38	41054.1	2.21733	110.413
52	7.9433	41194.8	1754.85	41232.2	2.43926	112.973
53	6.3096	41405.7	1947.05	41451.5	2.69227	115.478
54	5.0119	41593	2170.5	41649.6	2.98723	117.883
55	3.9811	41833.7	2439.5	41904.7	3.33738	120.378
56	3.1623	42067.4	2749.85	42157.2	3.73998	122.978
57	2.5119	42327.8	3125.34	42443	4.22286	125.548
58	1.9953	42580.1	3571.04	42729.6	4.79398	128.233
59	1.5849	42934.5	4097.35	43129.6	5.45138	131.048
60	1.2589	43223.4	4732.44	43481.7	6.24831	133.873
61	1	43590	5551.61	43942.1	7.25809	137.173
62	0.79433	44072	6446.86	44541	8.32222	140.383
63	0.63096	44557.9	7564.87	45195.5	9.63558	143.838
64	0.50119	44991.5	8951.27	45873.3	11.2523	147.628
65	0.39811	45667	10620.4	46885.7	13.092	151.834
66	0.31623	46466.7	12885.1	48220.1	15.4985	156.504
67	0.25119	47493.3	15052.2	49821.5	17.5852	161.889
68	0.19953	48737.1	17892.6	51917.7	20.1594	168.169
69	0.15849	50035.4	21305.5	54382.6	23.0647	175.474
70	0.12589	51628.4	25766.7	57701	26.5228	184.094
71	0.1	54185.9	30278	62071.5	29.1956	194.374