File: data/20200205/OCP_p28_1.txt
Time (s)	WE(1).Potential (V)	Corrected time (s)	Index	dWE(1).Potential/dt (V/s)	Cutoffs	OCP value (V)
4.3918	0.00298767	0	1	0	dWE(1).Potential/dt < 1E-06 V/s	0.0028116
4.4918	0.00299072	0.1	2	3.05171e-05
4.5918	0.00299377	0.2	3	3.0516e-05
4.6918	0.00299988	0.3	4	8.64726e-05
4.7918	0.00298767	0.4	5	-0.000284833	dWE(1).Potential/dt < 1E-06 V/s
4.8918	0.00298767	0.5	6	0.000162759
4.9918	0.00297852	0.6	7	-0.00020854	dWE(1).Potential/dt < 1E-06 V/s
5.0918	0.00298767	0.7	8	0.000274665
5.1918	0.00298767	0.8	9	-0.000137334	dWE(1).Potential/dt < 1E-06 V/s
5.2918	0.00298462	0.9	10	-2.54306e-05	dWE(1).Potential/dt < 1E-06 V/s
5.3918	0.00299072	1	11	0.000147502
5.4918	0.00299072	1.1	12	-8.13798e-05	dWE(1).Potential/dt < 1E-06 V/s
5.5918	0.00298462	1.2	13	-9.15506e-05	dWE(1).Potential/dt < 1E-06 V/s
5.6918	0.00297546	1.3	14	-9.66403e-05	dWE(1).Potential/dt < 1E-06 V/s
5.7918	0.00297241	1.4	15	3.05195e-05
5.8918	0.00297546	1.5	16	6.10312e-05
5.9918	0.00297241	1.6	17	-0.000101722	dWE(1).Potential/dt < 1E-06 V/s
6.0918	0.00298157	1.7	18	0.000213617
6.1918	0.00297546	1.8	19	-0.000228879	dWE(1).Potential/dt < 1E-06 V/s
6.2918	0.00296936	1.9	20	-1.01708e-05	dWE(1).Potential/dt < 1E-06 V/s
6.3918	0.00297546	2	21	0.00016276
6.4918	0.00297852	2.1	22	-3.56045e-05	dWE(1).Potential/dt < 1E-06 V/s
6.5918	0.00297241	2.2	23	-0.000127152	dWE(1).Potential/dt < 1E-06 V/s
6.6918	0.00297241	2.3	24	8.13759e-05
6.7918	0.00297241	2.4	25	-2.03455e-05	dWE(1).Potential/dt < 1E-06 V/s
6.8918	0.00297241	2.5	26	-7.76103e-10	dWE(1).Potential/dt < 1E-06 V/s
6.9918	0.00296631	2.6	27	-0.000111902	dWE(1).Potential/dt < 1E-06 V/s
7.0918	0.00296631	2.7	28	7.12082e-05
7.1918	0.00296936	2.8	29	3.56068e-05
7.2918	0.00297852	2.9	30	0.00013224
7.3918	0.00297546	3	31	-0.000152583	dWE(1).Potential/dt < 1E-06 V/s
7.4918	0.00296021	3.1	32	-0.000213625	dWE(1).Potential/dt < 1E-06 V/s
7.5918	0.00296021	3.2	33	0.000167847
7.6918	0.00297241	3.3	34	0.000172934
7.7918	0.00295105	3.4	35	-0.000534064	dWE(1).Potential/dt < 1E-06 V/s
7.8918	0.00296936	3.5	36	0.000625617
7.9918	0.00296021	3.6	37	-0.00045268	dWE(1).Potential/dt < 1E-06 V/s
8.0918	0.00297241	3.7	38	0.000391645
8.1918	0.00295715	3.8	39	-0.000452681	dWE(1).Potential/dt < 1E-06 V/s
8.2918	0.00296326	3.9	40	0.000330604
8.3918	0.00295715	4	41	-0.000233962	dWE(1).Potential/dt < 1E-06 V/s
8.4918	0.00296326	4.1	42	0.000203444
8.5918	0.00296631	4.2	43	-3.56006e-05	dWE(1).Potential/dt < 1E-06 V/s
8.6918	0.00296936	4.3	44	4.06919e-05
8.7918	0.00296631	4.4	45	-8.13845e-05	dWE(1).Potential/dt < 1E-06 V/s
8.8918	0.00296326	4.5	46	-1.01716e-05	dWE(1).Potential/dt < 1E-06 V/s
8.9918	0.00296326	4.6	47	2.54329e-05
9.0918	0.002948	4.7	48	-0.000289916	dWE(1).Potential/dt < 1E-06 V/s
9.1918	0.00296021	4.8	49	0.000401817
9.2918	0.00296021	4.9	50	-0.00019328	dWE(1).Potential/dt < 1E-06 V/s
9.3918	0.00295105	5	51	-0.000127159	dWE(1).Potential/dt < 1E-06 V/s
9.4918	0.00295715	5.1	52	0.000218712
9.5918	0.00294189	5.2	53	-0.000381473	dWE(1).Potential/dt < 1E-06 V/s
9.6918	0.00295105	5.3	54	0.000366207
9.7918	0.002948	5.4	55	-0.000213622	dWE(1).Potential/dt < 1E-06 V/s
9.8918	0.00294189	5.5	56	-4.57722e-05	dWE(1).Potential/dt < 1E-06 V/s
9.9918	0.00296021	5.6	57	0.000396724
10.0918	0.0029541	5.7	58	-0.000345862	dWE(1).Potential/dt < 1E-06 V/s
10.1918	0.00294495	5.8	59	-3.56053e-05	dWE(1).Potential/dt < 1E-06 V/s
10.2918	0.0029541	5.9	60	0.000254316
10.3918	0.002948	6	61	-0.00024923	dWE(1).Potential/dt < 1E-06 V/s
10.4918	0.00293884	6.1	62	-6.61147e-05	dWE(1).Potential/dt < 1E-06 V/s
10.5918	0.00294189	6.2	63	0.000142413
10.6918	0.00294495	6.3	64	-1.01755e-05	dWE(1).Potential/dt < 1E-06 V/s
10.7918	0.00294189	6.4	65	-8.13775e-05	dWE(1).Potential/dt < 1E-06 V/s
10.8918	0.00294495	6.5	66	0.000101721
10.9918	0.00295715	6.6	67	0.000178022
11.0918	0.00296021	6.7	68	-7.62979e-05	dWE(1).Potential/dt < 1E-06 V/s
11.1918	0.00294495	6.8	69	-0.000274657	dWE(1).Potential/dt < 1E-06 V/s
11.2918	0.00294189	6.9	70	0.000132244
11.3918	0.002948	7	71	9.66341e-05
11.4918	0.00293579	7.1	72	-0.000305173	dWE(1).Potential/dt < 1E-06 V/s
11.5918	0.00292969	7.2	73	5.08619e-05
11.6918	0.00293579	7.3	74	0.000142413
11.7918	0.002948	7.4	75	0.000132243
11.8918	0.00293884	7.5	76	-0.000289912	dWE(1).Potential/dt < 1E-06 V/s
11.9918	0.00294495	7.6	77	0.000259397
12.0918	0.00293884	7.7	78	-0.00021362	dWE(1).Potential/dt < 1E-06 V/s
12.1918	0.00293274	7.8	79	-2.03479e-05	dWE(1).Potential/dt < 1E-06 V/s
12.2918	0.00293884	7.9	80	0.000162767
12.3918	0.00293884	8	81	-9.15538e-05	dWE(1).Potential/dt < 1E-06 V/s
12.4918	0.00293274	8.1	82	-9.15545e-05	dWE(1).Potential/dt < 1E-06 V/s
12.5918	0.00294495	8.2	83	0.000295008
12.6918	0.00293884	8.3	84	-0.000274658	dWE(1).Potential/dt < 1E-06 V/s
12.7918	0.00292969	8.4	85	-5.595e-05	dWE(1).Potential/dt < 1E-06 V/s
12.8918	0.00293884	8.5	86	0.000254316
12.9918	0.00293884	8.6	87	-0.000137328	dWE(1).Potential/dt < 1E-06 V/s
13.0918	0.00293579	8.7	88	-2.54344e-05	dWE(1).Potential/dt < 1E-06 V/s
13.1918	0.00292053	8.8	89	-0.000244142	dWE(1).Potential/dt < 1E-06 V/s
13.2918	0.00293884	8.9	90	0.000503543
13.3918	0.00293274	9	91	-0.000376387	dWE(1).Potential/dt < 1E-06 V/s
13.4918	0.00293579	9.1	92	0.000188194
13.5918	0.00293579	9.2	93	-5.59524e-05	dWE(1).Potential/dt < 1E-06 V/s
13.6918	0.00292358	9.3	94	-0.00021362	dWE(1).Potential/dt < 1E-06 V/s
13.7918	0.00293884	9.4	95	0.000422161
13.8918	0.00292664	9.5	96	-0.000442504	dWE(1).Potential/dt < 1E-06 V/s
13.9918	0.00291443	9.6	97	-3.0521e-05	dWE(1).Potential/dt < 1E-06 V/s
14.0918	0.00292969	9.7	98	0.000381472
14.1918	0.00293579	9.8	99	-0.000106814	dWE(1).Potential/dt < 1E-06 V/s
14.2918	0.00293579	9.9	100	-2.03463e-05	dWE(1).Potential/dt < 1E-06 V/s
14.3918	0.00293579	10	101	2.03432e-05
14.4918	0.00292664	10.1	102	-0.000167845	dWE(1).Potential/dt < 1E-06 V/s
14.5918	0.00292053	10.2	103	-5.09279e-06	dWE(1).Potential/dt < 1E-06 V/s
14.6918	0.00292053	10.3	104	4.06911e-05
14.7918	0.00292664	10.4	105	9.15545e-05
14.8918	0.00292358	10.5	106	-0.000127158	dWE(1).Potential/dt < 1E-06 V/s
14.9918	0.00293274	10.6	107	0.000223795
15.0918	0.00292358	10.7	108	-0.000284824	dWE(1).Potential/dt < 1E-06 V/s
15.1918	0.00292358	10.8	109	0.000137328
15.2918	0.00292969	10.9	110	8.13798e-05
15.3918	0.00291443	11	111	-0.000350952	dWE(1).Potential/dt < 1E-06 V/s
15.4918	0.00292969	11.1	112	0.000478109
15.5918	0.00292053	11.2	113	-0.000396731	dWE(1).Potential/dt < 1E-06 V/s
15.6918	0.00292969	11.3	114	0.000325522
15.7918	0.00292664	11.4	115	-0.000193278	dWE(1).Potential/dt < 1E-06 V/s
15.8918	0.00292664	11.5	116	6.61193e-05
15.9918	0.00292053	11.6	117	-0.000122075	dWE(1).Potential/dt < 1E-06 V/s
16.0918	0.00291748	11.7	118	1.52605e-05
16.1918	0.00292969	11.8	119	0.000239058
16.2918	0.00291443	11.9	120	-0.000432334	dWE(1).Potential/dt < 1E-06 V/s
16.3918	0.00291443	12	121	0.00021871
16.4918	0.00292664	12.1	122	0.000172934
16.5918	0.00291138	12.2	123	-0.000422163	dWE(1).Potential/dt < 1E-06 V/s
16.6918	0.00291138	12.3	124	0.000218709
16.7918	0.00292053	12.4	125	0.00011698
16.8918	0.00291748	12.5	126	-0.000162759	dWE(1).Potential/dt < 1E-06 V/s
16.9918	0.00290833	12.6	127	-0.00010172	dWE(1).Potential/dt < 1E-06 V/s
17.0918	0.00292053	12.7	128	0.00032043
17.1918	0.00291138	12.8	129	-0.000340777	dWE(1).Potential/dt < 1E-06 V/s
17.2918	0.00290833	12.9	130	9.15506e-05
17.3918	0.00290833	13	131	5.08968e-06
17.4918	0.00292358	13.1	132	0.000269574
17.5918	0.00290527	13.2	133	-0.000513716	dWE(1).Potential/dt < 1E-06 V/s
17.6918	0.00290833	13.3	134	0.000320439
17.7918	0.00290833	13.4	135	-9.66388e-05	dWE(1).Potential/dt < 1E-06 V/s
17.8918	0.00291138	13.5	136	6.61224e-05
17.9918	0.00290527	13.6	137	-0.000147508	dWE(1).Potential/dt < 1E-06 V/s
18.0918	0.00291443	13.7	138	0.00024923
18.1918	0.00291138	13.8	139	-0.000183105	dWE(1).Potential/dt < 1E-06 V/s
18.2918	0.00290222	13.9	140	-0.00010173	dWE(1).Potential/dt < 1E-06 V/s
18.3918	0.00291443	14	141	0.00032044
18.4918	0.00291443	14.1	142	-0.000172935	dWE(1).Potential/dt < 1E-06 V/s
18.5918	0.00290833	14.2	143	-7.12051e-05	dWE(1).Potential/dt < 1E-06 V/s
18.6918	0.00289917	14.3	144	-9.66403e-05	dWE(1).Potential/dt < 1E-06 V/s
18.7918	0.00291443	14.4	145	0.000366212
18.8918	0.00291138	14.5	146	-0.000264485	dWE(1).Potential/dt < 1E-06 V/s
18.9918	0.00290527	14.6	147	-2.54375e-05	dWE(1).Potential/dt < 1E-06 V/s
19.0918	0.00291443	14.7	148	0.000228885
19.1918	0.00290527	14.8	149	-0.000295007	dWE(1).Potential/dt < 1E-06 V/s
19.2918	0.00289917	14.9	150	2.54329e-05
19.3918	0.00290527	15	151	0.000152585
19.4918	0.00289612	15.1	152	-0.000259397	dWE(1).Potential/dt < 1E-06 V/s
19.5918	0.00290527	15.2	153	0.000294997
19.6918	0.00289612	15.3	154	-0.000305171	dWE(1).Potential/dt < 1E-06 V/s
19.7918	0.00290527	15.4	155	0.000305169
19.8918	0.00289612	15.5	156	-0.000305171	dWE(1).Potential/dt < 1E-06 V/s
19.9918	0.00290222	15.6	157	0.000249221
20.0918	0.00290527	15.7	158	-4.5773e-05	dWE(1).Potential/dt < 1E-06 V/s
20.1918	0.00290527	15.8	159	-1.52621e-05	dWE(1).Potential/dt < 1E-06 V/s
20.2918	0.00289917	15.9	160	-0.000101725	dWE(1).Potential/dt < 1E-06 V/s
20.3918	0.00289917	16	161	7.12074e-05
20.4918	0.00289307	16.1	162	-0.00013224	dWE(1).Potential/dt < 1E-06 V/s
20.5918	0.00288696	16.2	163	-4.06926e-05	dWE(1).Potential/dt < 1E-06 V/s
20.6918	0.00289307	16.3	164	0.000162767
20.7918	0.00289917	16.4	165	2.03417e-05
20.8918	0.00290527	16.5	166	6.10335e-05
20.9918	0.00289307	16.6	167	-0.000274655	dWE(1).Potential/dt < 1E-06 V/s
21.0918	0.00289307	16.7	168	0.000162761
21.1918	0.00289612	16.8	169	1.52597e-05
21.2918	0.00288696	16.9	170	-0.000203455	dWE(1).Potential/dt < 1E-06 V/s
21.3918	0.00289307	17	171	0.00022889
21.4918	0.00289307	17.1	172	-0.000101726	dWE(1).Potential/dt < 1E-06 V/s
21.5918	0.00290833	17.2	173	0.000300092
21.6918	0.00288696	17.3	174	-0.000569664	dWE(1).Potential/dt < 1E-06 V/s
21.7918	0.00289307	17.4	175	0.000411994
21.8918	0.00288696	17.5	176	-0.000254318	dWE(1).Potential/dt < 1E-06 V/s
21.9918	0.00288696	17.6	177	9.15561e-05
22.0918	0.00289307	17.7	178	9.15569e-05
22.1918	0.00289001	17.8	179	-0.000127162	dWE(1).Potential/dt < 1E-06 V/s
22.2918	0.00289001	17.9	180	5.59485e-05
22.3918	0.00289917	18	181	0.000157675
22.4918	0.00289612	18.1	182	-0.00016276	dWE(1).Potential/dt < 1E-06 V/s
22.5918	0.00288086	18.2	183	-0.000213625	dWE(1).Potential/dt < 1E-06 V/s
22.6918	0.00288696	18.3	184	0.000279742
22.7918	0.00289307	18.4	185	-1.01646e-05	dWE(1).Potential/dt < 1E-06 V/s
22.8918	0.00289307	18.5	186	-5.08635e-05	dWE(1).Potential/dt < 1E-06 V/s
22.9918	0.00287781	18.6	187	-0.000259398	dWE(1).Potential/dt < 1E-06 V/s
23.0918	0.00287476	18.7	188	0.000122067
23.1918	0.00289001	18.8	189	0.000264485
23.2918	0.00287781	18.9	190	-0.000411985	dWE(1).Potential/dt < 1E-06 V/s
23.3918	0.00289001	19	191	0.00041707
23.4918	0.00288086	19.1	192	-0.000350949	dWE(1).Potential/dt < 1E-06 V/s
23.5918	0.00289307	19.2	193	0.000371295
23.6918	0.00288391	19.3	194	-0.000340779	dWE(1).Potential/dt < 1E-06 V/s
23.7918	0.00287781	19.4	195	3.56068e-05
23.8918	0.00289001	19.5	196	0.000264482
23.9918	0.00288391	19.6	197	-0.000274657	dWE(1).Potential/dt < 1E-06 V/s
24.0918	0.00289001	19.7	198	0.000223792
24.1918	0.00287781	19.8	199	-0.000315345	dWE(1).Potential/dt < 1E-06 V/s
24.2918	0.00287781	19.9	200	0.000162761
24.3918	0.00288391	20	201	7.12074e-05
24.4918	0.00288391	20.1	202	-7.12074e-05	dWE(1).Potential/dt < 1E-06 V/s
24.5918	0.00288696	20.2	203	7.62925e-05
24.6918	0.00289612	20.3	204	0.000132248
24.7918	0.00287476	20.4	205	-0.00048829	dWE(1).Potential/dt < 1E-06 V/s
24.8918	0.00288696	20.5	206	0.000503543
24.9918	0.00287476	20.6	207	-0.000437419	dWE(1).Potential/dt < 1E-06 V/s
25.0918	0.0028717	20.7	208	0.000127155
25.1918	0.00287781	20.8	209	0.000106817
25.2918	0.00289001	20.9	210	0.00014241
25.3918	0.00288391	21	211	-0.000233966	dWE(1).Potential/dt < 1E-06 V/s
25.4918	0.00288696	21.1	212	0.000167845
25.5918	0.00288086	21.2	213	-0.000167842	dWE(1).Potential/dt < 1E-06 V/s
25.6918	0.00288391	21.3	214	0.000137324
25.7918	0.0028717	21.4	215	-0.000279744	dWE(1).Potential/dt < 1E-06 V/s
25.8918	0.00287476	21.5	216	0.000208538
25.9918	0.0028656	21.6	217	-0.00024414	dWE(1).Potential/dt < 1E-06 V/s
26.0918	0.00287476	21.7	218	0.000284824
26.1918	0.0028717	21.8	219	-0.000193276	dWE(1).Potential/dt < 1E-06 V/s
26.2918	0.00288696	21.9	220	0.000345868
26.3918	0.00287781	22	221	-0.000356034	dWE(1).Potential/dt < 1E-06 V/s
26.4918	0.00287476	22.1	222	0.00010172
26.5918	0.0028717	22.2	223	-5.08619e-05	dWE(1).Potential/dt < 1E-06 V/s
26.6918	0.00288391	22.3	224	0.00024923
26.7918	0.00287781	22.4	225	-0.000264485	dWE(1).Potential/dt < 1E-06 V/s
26.8918	0.00287781	22.5	226	0.000111899
26.9918	0.0028656	22.6	227	-0.00024414	dWE(1).Potential/dt < 1E-06 V/s
27.0918	0.00286865	22.7	228	0.000198361
27.1918	0.0028717	22.8	229	-2.03448e-05	dWE(1).Potential/dt < 1E-06 V/s
27.2918	0.00287781	22.9	230	8.64726e-05
27.3918	0.00287781	23	231	-6.10358e-05	dWE(1).Potential/dt < 1E-06 V/s
27.4918	0.00286255	23.1	232	-0.000259398	dWE(1).Potential/dt < 1E-06 V/s
27.5918	0.00287476	23.2	233	0.000401812
27.6918	0.0028717	23.3	234	-0.000249227	dWE(1).Potential/dt < 1E-06 V/s
27.7918	0.0028656	23.4	235	-3.55998e-05	dWE(1).Potential/dt < 1E-06 V/s
27.8918	0.00287781	23.5	236	0.000284828
27.9918	0.0028717	23.6	237	-0.000274659	dWE(1).Potential/dt < 1E-06 V/s
28.0918	0.00287476	23.7	238	0.000167849
28.1918	0.0028717	23.8	239	-0.0001119	dWE(1).Potential/dt < 1E-06 V/s
28.2918	0.0028656	23.9	240	-6.6117e-05	dWE(1).Potential/dt < 1E-06 V/s
28.3918	0.00288696	24	241	0.000452671
28.4918	0.00286255	24.1	242	-0.000717156	dWE(1).Potential/dt < 1E-06 V/s
28.5918	0.00286865	24.2	243	0.000467933
28.6918	0.00288086	24.3	244	7.12098e-05
28.7918	0.00286865	24.4	245	-0.00034587	dWE(1).Potential/dt < 1E-06 V/s
28.8918	0.00287476	24.5	246	0.000295003
28.9918	0.00286865	24.6	247	-0.000223795	dWE(1).Potential/dt < 1E-06 V/s
29.0918	0.0028717	24.7	248	0.0001475
29.1918	0.00286865	24.8	249	-0.000111894	dWE(1).Potential/dt < 1E-06 V/s
29.2918	0.00286255	24.9	250	-6.61209e-05	dWE(1).Potential/dt < 1E-06 V/s
29.3918	0.00287476	25	251	0.000284827
29.4918	0.00287781	25.1	252	-0.000106807	dWE(1).Potential/dt < 1E-06 V/s
29.5918	0.00287476	25.2	253	-5.08673e-05	dWE(1).Potential/dt < 1E-06 V/s
29.6918	0.00286865	25.3	254	-6.61193e-05	dWE(1).Potential/dt < 1E-06 V/s
29.7918	0.00286865	25.4	255	6.10343e-05
29.8918	0.00287781	25.5	256	0.000147505
29.9918	0.0028595	25.6	257	-0.000442509	dWE(1).Potential/dt < 1E-06 V/s
30.0918	0.00287476	25.7	258	0.000523885
30.1918	0.00287781	25.8	259	-0.000183103	dWE(1).Potential/dt < 1E-06 V/s
30.2918	0.0028595	25.9	260	-0.000320439	dWE(1).Potential/dt < 1E-06 V/s
30.3918	0.0028595	26	261	0.000223795
30.4918	0.0028717	26.1	262	0.00016276
30.5918	0.0028717	26.2	263	-0.000142413	dWE(1).Potential/dt < 1E-06 V/s
30.6918	0.0028717	26.3	264	4.06911e-05
30.7918	0.0028717	26.4	265	7.76103e-10	dWE(1).Potential/dt < 1E-06 V/s
30.8918	0.00286255	26.5	266	-0.000167842	dWE(1).Potential/dt < 1E-06 V/s
30.9918	0.0028595	26.6	267	5.08572e-05
31.0918	0.00285645	26.7	268	-5.08619e-05	dWE(1).Potential/dt < 1E-06 V/s
31.1918	0.00286255	26.8	269	0.000137335
31.2918	0.00286865	26.9	270	3.05148e-05
31.3918	0.00285645	27	271	-0.000274659	dWE(1).Potential/dt < 1E-06 V/s
31.4918	0.0028595	27.1	272	0.00021871
31.5918	0.00287476	27.2	273	0.000203448
31.6918	0.00286865	27.3	274	-0.000279744	dWE(1).Potential/dt < 1E-06 V/s
31.7918	0.0028656	27.4	275	6.61224e-05
31.8918	0.00286255	27.5	276	-4.06911e-05	dWE(1).Potential/dt < 1E-06 V/s
31.9918	0.00285339	27.6	277	-0.000142415	dWE(1).Potential/dt < 1E-06 V/s
32.0918	0.00287476	27.7	278	0.00048828
32.1918	0.0028595	27.8	279	-0.000559491	dWE(1).Potential/dt < 1E-06 V/s
32.2918	0.00285645	27.9	280	0.000193278
32.3918	0.00286865	28	281	0.00020854
32.4918	0.00286865	28.1	282	-0.00015259	dWE(1).Potential/dt < 1E-06 V/s
32.5918	0.0028717	28.2	283	9.6638e-05
32.6918	0.0028717	28.3	284	-3.56014e-05	dWE(1).Potential/dt < 1E-06 V/s
32.7918	0.00286255	28.4	285	-0.00015767	dWE(1).Potential/dt < 1E-06 V/s
32.8918	0.00287476	28.5	286	0.000330602
32.9918	0.00288086	28.6	287	-6.1032e-05	dWE(1).Potential/dt < 1E-06 V/s
33.0918	0.0028595	28.7	288	-0.000422167	dWE(1).Potential/dt < 1E-06 V/s
33.1918	0.00286255	28.8	289	0.000325527
33.2918	0.00286255	28.9	290	-0.000106811	dWE(1).Potential/dt < 1E-06 V/s
33.3918	0.00286865	29	291	0.00012207
33.4918	0.00286255	29.1	292	-0.000183103	dWE(1).Potential/dt < 1E-06 V/s
33.5918	0.00286255	29.2	293	9.15538e-05
33.6918	0.00286255	29.3	294	-2.03432e-05	dWE(1).Potential/dt < 1E-06 V/s
33.7918	0.00286255	29.4	295	1.55221e-09	dWE(1).Potential/dt < 1E-06 V/s
33.8918	0.00286255	29.5	296	1.55221e-09	dWE(1).Potential/dt < 1E-06 V/s
33.9918	0.00286255	29.6	297	1.55221e-09	dWE(1).Potential/dt < 1E-06 V/s
34.0918	0.00286255	29.7	298	1.55221e-09	dWE(1).Potential/dt < 1E-06 V/s
34.1918	0.00286255	29.8	299	1.55221e-09	dWE(1).Potential/dt < 1E-06 V/s
34.2918	0.00285034	29.9	300	-0.000223795	dWE(1).Potential/dt < 1E-06 V/s
34.3918	0.00285645	30	301	0.000254309
34.4918	0.00285339	30.1	302	-0.000167842	dWE(1).Potential/dt < 1E-06 V/s
34.5918	0.00285339	30.2	303	5.59469e-05
34.6918	0.00285645	30.3	304	4.57753e-05
34.7918	0.0028595	30.4	305	2.03463e-05
34.8918	0.00285339	30.5	306	-0.00013733	dWE(1).Potential/dt < 1E-06 V/s
34.9918	0.0028656	30.6	307	0.000305177
[...]
49.1918	0.00283508	44.8	449	0.000376387
49.2918	0.00283813	44.9	450	-0.000127161	dWE(1).Potential/dt < 1E-06 V/s
49.3918	0.00282898	45	451	-0.000162761	dWE(1).Potential/dt < 1E-06 V/s
49.4918	0.00282898	45.1	452	0.000116983
49.5918	0.00283508	45.2	453	8.13821e-05
49.6918	0.00283508	45.3	454	-7.12105e-05	dWE(1).Potential/dt < 1E-06 V/s
49.7918	0.00284424	45.4	455	0.000188188
49.8918	0.00282593	45.5	456	-0.000442504	dWE(1).Potential/dt < 1E-06 V/s
49.9918	0.00282898	45.6	457	0.00030009
50.0918	0.00282593	45.7	458	-0.00015259	dWE(1).Potential/dt < 1E-06 V/s
50.1918	0.00281677	45.8	459	-0.000122065	dWE(1).Potential/dt < 1E-06 V/s
50.2918	0.00282593	45.9	460	0.000264482
50.3918	0.00284119	46	461	0.000142419
50.4918	0.00282288	46.1	462	-0.000483194	dWE(1).Potential/dt < 1E-06 V/s
50.5918	0.00283508	46.2	463	0.000488281
50.6918	0.00281982	46.3	464	-0.000483198	dWE(1).Potential/dt < 1E-06 V/s
50.7918	0.00282593	46.4	465	0.000330604
50.8918	0.00283203	46.5	466	-1.01646e-05	dWE(1).Potential/dt < 1E-06 V/s
50.9918	0.00282898	46.6	467	-0.000106817	dWE(1).Potential/dt < 1E-06 V/s
51.0918	0.00283203	46.7	468	0.000111902
51.1918	0.00283813	46.8	469	6.61193e-05
51.2918	0.00283508	46.9	470	-0.000116982	dWE(1).Potential/dt < 1E-06 V/s
51.3918	0.00283508	47	471	5.59462e-05
51.4918	0.00282898	47.1	472	-0.000122075	dWE(1).Potential/dt < 1E-06 V/s
51.5918	0.00283508	47.2	473	0.00018311
51.6918	0.00283203	47.3	474	-0.000147504	dWE(1).Potential/dt < 1E-06 V/s
51.7918	0.00281982	47.4	475	-0.000167845	dWE(1).Potential/dt < 1E-06 V/s
51.8918	0.00283203	47.5	476	0.000356038
51.9918	0.00282593	47.6	477	-0.000295004	dWE(1).Potential/dt < 1E-06 V/s
52.0918	0.00283203	47.7	478	0.000223802
52.1918	0.00282593	47.8	479	-0.000203455	dWE(1).Potential/dt < 1E-06 V/s
52.2918	0.00281677	47.9	480	-7.6287e-05	dWE(1).Potential/dt < 1E-06 V/s
52.3918	0.00281982	48	481	0.000142413
52.4918	0.00283813	48.1	482	0.000269569
52.5918	0.00281677	48.2	483	-0.000595089	dWE(1).Potential/dt < 1E-06 V/s
52.6918	0.00283813	48.3	484	0.000701904
52.7918	0.00281677	48.4	485	-0.000712074	dWE(1).Potential/dt < 1E-06 V/s
52.8918	0.00281982	48.5	486	0.000376384
52.9918	0.00282898	48.6	487	6.10296e-05
53.0918	0.00283203	48.7	488	-4.06849e-05	dWE(1).Potential/dt < 1E-06 V/s
53.1918	0.00282593	48.8	489	-0.000116987	dWE(1).Potential/dt < 1E-06 V/s
53.2918	0.00282898	48.9	490	0.000137331
53.3918	0.00282593	49	491	-0.0001119	dWE(1).Potential/dt < 1E-06 V/s
53.4918	0.00281982	49.1	492	-6.6117e-05	dWE(1).Potential/dt < 1E-06 V/s
53.5918	0.00282288	49.2	493	0.000116979
53.6918	0.00282898	49.3	494	5.59485e-05
53.7918	0.00282288	49.4	495	-0.000172932	dWE(1).Potential/dt < 1E-06 V/s
53.8918	0.00282898	49.5	496	0.000203448
53.9918	0.00281677	49.6	497	-0.000315345	dWE(1).Potential/dt < 1E-06 V/s
54.0918	0.00282288	49.7	498	0.000274657
54.1918	0.00281067	49.8	499	-0.000335694	dWE(1).Potential/dt < 1E-06 V/s
54.2918	0.00282288	49.9	500	0.00038656
54.3918	0.00280762	50	501	-0.000462852	dWE(1).Potential/dt < 1E-06 V/s
54.4918	0.00282288	50.1	502	0.000498454
54.5918	0.00281677	50.2	503	-0.000340777	dWE(1).Potential/dt < 1E-06 V/s
54.6918	0.00281982	50.3	504	0.000178019
54.7918	0.00281677	50.4	505	-0.000111899	dWE(1).Potential/dt < 1E-06 V/s
54.8918	0.00282593	50.5	506	0.000213622
54.9918	0.00283203	50.6	507	-5.07959e-06	dWE(1).Potential/dt < 1E-06 V/s
55.0918	0.00281677	50.7	508	-0.000320436	dWE(1).Potential/dt < 1E-06 V/s
55.1918	0.00281677	50.8	509	0.000198366
55.2918	0.00280762	50.9	510	-0.00021871	dWE(1).Potential/dt < 1E-06 V/s
55.3918	0.00281982	51	511	0.000330609
55.4918	0.00281982	51.1	512	-0.000172936	dWE(1).Potential/dt < 1E-06 V/s
55.5918	0.00282593	51.2	513	0.000152585
55.6918	0.00282593	51.3	514	-7.12036e-05	dWE(1).Potential/dt < 1E-06 V/s
55.7918	0.00283203	51.4	515	0.000132247
55.8918	0.00283203	51.5	516	-7.12082e-05	dWE(1).Potential/dt < 1E-06 V/s
55.9918	0.00283203	51.6	517	2.03471e-05
56.0918	0.00281067	51.7	518	-0.000391645	dWE(1).Potential/dt < 1E-06 V/s
56.1918	0.00281067	51.8	519	0.00024923
56.2918	0.00281372	51.9	520	-1.52597e-05	dWE(1).Potential/dt < 1E-06 V/s
56.3918	0.00282288	52	521	0.000132242
56.4918	0.00282593	52.1	522	-4.06919e-05	dWE(1).Potential/dt < 1E-06 V/s
56.5918	0.00281982	52.2	523	-0.000116979	dWE(1).Potential/dt < 1E-06 V/s
56.6918	0.00282593	52.3	524	0.000193271
56.7918	0.00281372	52.4	525	-0.000315345	dWE(1).Potential/dt < 1E-06 V/s
56.8918	0.00282593	52.5	526	0.000386554
56.9918	0.00283203	52.6	527	-7.1202e-05	dWE(1).Potential/dt < 1E-06 V/s
57.0918	0.00281677	52.7	528	-0.000310263	dWE(1).Potential/dt < 1E-06 V/s
57.1918	0.00281067	52.8	529	8.64648e-05
57.2918	0.00281982	52.9	530	0.000188197
57.3918	0.00282593	53	531	-1.52659e-05	dWE(1).Potential/dt < 1E-06 V/s
57.4918	0.00282288	53.1	532	-9.66333e-05	dWE(1).Potential/dt < 1E-06 V/s
57.5918	0.00281982	53.2	533	-7.76103e-10	dWE(1).Potential/dt < 1E-06 V/s
57.6918	0.00281372	53.3	534	-8.64726e-05	dWE(1).Potential/dt < 1E-06 V/s
57.7918	0.00281677	53.4	535	0.00011699
57.8918	0.00282288	53.5	536	5.59469e-05
57.9918	0.00281677	53.6	537	-0.00017293	dWE(1).Potential/dt < 1E-06 V/s
58.0918	0.00281677	53.7	538	9.15538e-05
58.1918	0.00281677	53.8	539	-2.03432e-05	dWE(1).Potential/dt < 1E-06 V/s
58.2918	0.00281982	53.9	540	5.59493e-05
58.3918	0.00282288	54	541	2.03417e-05
58.4918	0.00281372	54.1	542	-0.000193279	dWE(1).Potential/dt < 1E-06 V/s
58.5918	0.00281677	54.2	543	0.000172937
58.6918	0.00282288	54.3	544	4.57745e-05
58.7918	0.00281677	54.4	545	-0.00017293	dWE(1).Potential/dt < 1E-06 V/s
58.8918	0.00282898	54.5	546	0.000315345
58.9918	0.00283813	54.6	547	5.08813e-06
59.0918	0.00282288	54.7	548	-0.000345867	dWE(1).Potential/dt < 1E-06 V/s
59.1918	0.00281372	54.8	549	4.0688e-05
59.2918	0.00281982	54.9	550	0.000167849
59.3918	0.00281982	55	551	-0.000101728	dWE(1).Potential/dt < 1E-06 V/s
59.4918	0.00280762	55.1	552	-0.000203452	dWE(1).Potential/dt < 1E-06 V/s
59.5918	0.00281372	55.2	553	0.000254313
59.6918	0.00281677	55.3	554	-5.59454e-05	dWE(1).Potential/dt < 1E-06 V/s
59.7918	0.00281677	55.4	555	-1.52582e-05	dWE(1).Potential/dt < 1E-06 V/s
59.8918	0.00281067	55.5	556	-0.000101727	dWE(1).Potential/dt < 1E-06 V/s
59.9918	0.00281067	55.6	557	7.12105e-05
60.0918	0.00280457	55.7	558	-0.00013224	dWE(1).Potential/dt < 1E-06 V/s
60.1918	0.00282288	55.8	559	0.000406896
60.2918	0.00282593	55.9	560	-0.000178019	dWE(1).Potential/dt < 1E-06 V/s
60.3918	0.00281982	56	561	-8.64617e-05	dWE(1).Potential/dt < 1E-06 V/s
60.4918	0.00281982	56.1	562	8.13759e-05
60.5918	0.00280151	56.2	563	-0.000356038	dWE(1).Potential/dt < 1E-06 V/s
60.6918	0.00281677	56.3	564	0.000493371
60.7918	0.00281677	56.4	565	-0.000239053	dWE(1).Potential/dt < 1E-06 V/s
60.8918	0.00281677	56.5	566	5.08642e-05
60.9918	0.00281372	56.6	567	-5.59524e-05	dWE(1).Potential/dt < 1E-06 V/s
61.0918	0.00281982	56.7	568	0.000147505
61.1918	0.00282288	56.8	569	-2.5436e-05	dWE(1).Potential/dt < 1E-06 V/s
61.2918	0.00281067	56.9	570	-0.000239054	dWE(1).Potential/dt < 1E-06 V/s
61.3918	0.00281067	57	571	0.00015259
61.4918	0.00281677	57.1	572	7.12121e-05
61.5918	0.00281067	57.2	573	-0.00018311	dWE(1).Potential/dt < 1E-06 V/s
61.6918	0.00280457	57.3	574	-2.03393e-05	dWE(1).Potential/dt < 1E-06 V/s
61.7918	0.00280457	57.4	575	5.0858e-05
61.8918	0.00281067	57.5	576	9.15499e-05
61.9918	0.00280762	57.6	577	-0.000127151	dWE(1).Potential/dt < 1E-06 V/s
62.0918	0.00282288	57.7	578	0.000335692
62.1918	0.00281067	57.8	579	-0.000411989	dWE(1).Potential/dt < 1E-06 V/s
62.2918	0.00282593	57.9	580	0.000473025
62.3918	0.00281372	58	581	-0.000442506	dWE(1).Potential/dt < 1E-06 V/s
62.4918	0.00281067	58.1	582	0.000137328
62.5918	0.00281067	58.2	583	-5.08425e-06	dWE(1).Potential/dt < 1E-06 V/s
62.6918	0.00280762	58.3	584	-6.61193e-05	dWE(1).Potential/dt < 1E-06 V/s
62.7918	0.00279846	58.4	585	-0.000132247	dWE(1).Potential/dt < 1E-06 V/s
62.8918	0.00280457	58.5	586	0.00020854
62.9918	0.00281067	58.6	587	1.01669e-05
63.0918	0.00280457	58.7	588	-0.000162753	dWE(1).Potential/dt < 1E-06 V/s
63.1918	0.00280457	58.8	589	9.15483e-05
63.2918	0.00280762	58.9	590	3.56022e-05
63.3918	0.00280151	59	591	-0.000147498	dWE(1).Potential/dt < 1E-06 V/s
63.4918	0.00280762	59.1	592	0.000193277
63.5918	0.00281067	59.2	593	-3.56045e-05	dWE(1).Potential/dt < 1E-06 V/s
63.6918	0.00279541	59.3	594	-0.000295001	dWE(1).Potential/dt < 1E-06 V/s
63.7918	0.00280762	59.4	595	0.00041199
63.8918	0.00279541	59.5	596	-0.000417077	dWE(1).Potential/dt < 1E-06 V/s
63.9918	0.00280762	59.6	597	0.000406905
64.0918	0.00281982	59.7	598	4.06895e-05
64.1918	0.00280762	59.8	599	-0.000325525	dWE(1).Potential/dt < 1E-06 V/s
64.2918	0.00281067	59.9	600	0.000239055