File: data/20200205/OCP_p32_1.txt
Time (s)	WE(1).Potential (V)	Corrected time (s)	Index	dWE(1).Potential/dt (V/s)	Cutoffs	OCP value (V)
1.50575	-0.0576477	0	1	0	dWE(1).Potential/dt < 1E-06 V/s	-0.0580911
1.60575	-0.0577087	0.1	2	-0.000610351	dWE(1).Potential/dt < 1E-06 V/s
1.70575	-0.0576782	0.2	3	0.000762939
1.80575	-0.0577087	0.3	4	-0.00111898	dWE(1).Potential/dt < 1E-06 V/s
1.90575	-0.0576782	0.4	5	0.00101725
2.00575	-0.0577087	0.5	6	-0.00101725	dWE(1).Potential/dt < 1E-06 V/s
2.10575	-0.0577087	0.6	7	0.000457764
2.20575	-0.0576782	0.7	8	0.000457764
2.30575	-0.0577087	0.8	9	-0.000915527	dWE(1).Potential/dt < 1E-06 V/s
2.40575	-0.0577087	0.9	10	0.000457764
2.50575	-0.0577087	1	11	-0.000101725	dWE(1).Potential/dt < 1E-06 V/s
2.60575	-0.0576782	1.1	12	0.000559489
2.70575	-0.0577393	1.2	13	-0.00147502	dWE(1).Potential/dt < 1E-06 V/s
2.80575	-0.0577087	1.3	14	0.00137329
2.90575	-0.0577087	1.4	15	-0.000559489	dWE(1).Potential/dt < 1E-06 V/s
3.00575	-0.0577393	1.5	16	-0.000457764	dWE(1).Potential/dt < 1E-06 V/s
3.10575	-0.0577087	1.6	17	0.000915527
3.20575	-0.0577087	1.7	18	-0.000457764	dWE(1).Potential/dt < 1E-06 V/s
3.30575	-0.0577087	1.8	19	0.000101725
3.40575	-0.0577698	1.9	20	-0.00111898	dWE(1).Potential/dt < 1E-06 V/s
3.50575	-0.0577393	2	21	0.00127157
3.60575	-0.0577393	2.1	22	-0.000559489	dWE(1).Potential/dt < 1E-06 V/s
3.70575	-0.0577087	2.2	23	0.000661214
3.80575	-0.0577087	2.3	24	-0.000356038	dWE(1).Potential/dt < 1E-06 V/s
3.90575	-0.0577393	2.4	25	-0.000457764	dWE(1).Potential/dt < 1E-06 V/s
4.00575	-0.0577698	2.5	26	-0.00020345	dWE(1).Potential/dt < 1E-06 V/s
4.10575	-0.0577393	2.6	27	0.000813802
4.20575	-0.0577393	2.7	28	-0.000457764	dWE(1).Potential/dt < 1E-06 V/s
4.30575	-0.0577087	2.8	29	0.000661214
4.40575	-0.0577393	2.9	30	-0.000915527	dWE(1).Potential/dt < 1E-06 V/s
4.50575	-0.0577393	3	31	0.000457764
4.60575	-0.0577698	3.1	32	-0.000661214	dWE(1).Potential/dt < 1E-06 V/s
4.70575	-0.0577698	3.2	33	0.000356038
4.80575	-0.0577393	3.3	34	0.000457764
4.90575	-0.0577393	3.4	35	-0.000356038	dWE(1).Potential/dt < 1E-06 V/s
5.00575	-0.0577393	3.5	36	0.000101725
5.10575	-0.0577393	3.6	37	0	dWE(1).Potential/dt < 1E-06 V/s
5.20575	-0.0577698	3.7	38	-0.000559489	dWE(1).Potential/dt < 1E-06 V/s
5.30575	-0.0577393	3.8	39	0.000915527
5.40575	-0.0577698	3.9	40	-0.00101725	dWE(1).Potential/dt < 1E-06 V/s
5.50575	-0.0577698	4	41	0.000457764
5.60575	-0.0578003	4.1	42	-0.000661214	dWE(1).Potential/dt < 1E-06 V/s
5.70575	-0.0578003	4.2	43	0.000356038
5.80575	-0.0577698	4.3	44	0.000457764
5.90575	-0.0577698	4.4	45	-0.000356038	dWE(1).Potential/dt < 1E-06 V/s
6.00575	-0.0577698	4.5	46	0.000101725
6.10575	-0.0578003	4.6	47	-0.000559489	dWE(1).Potential/dt < 1E-06 V/s
6.20575	-0.0578003	4.7	48	0.000356038
6.30575	-0.0577698	4.8	49	0.000457764
6.40575	-0.0578003	4.9	50	-0.000915527	dWE(1).Potential/dt < 1E-06 V/s
6.50575	-0.0577698	5	51	0.00101725
6.60575	-0.0578003	5.1	52	-0.00101725	dWE(1).Potential/dt < 1E-06 V/s
6.70575	-0.0578003	5.2	53	0.000457764
6.80575	-0.0578003	5.3	54	-0.000101725	dWE(1).Potential/dt < 1E-06 V/s
6.90575	-0.0578003	5.4	55	0	dWE(1).Potential/dt < 1E-06 V/s
7.00575	-0.0578003	5.5	56	0	dWE(1).Potential/dt < 1E-06 V/s
7.10575	-0.0577698	5.6	57	0.000559489
7.20575	-0.0577698	5.7	58	-0.000356038	dWE(1).Potential/dt < 1E-06 V/s
7.30575	-0.0578003	5.8	59	-0.000457764	dWE(1).Potential/dt < 1E-06 V/s
7.40575	-0.0578003	5.9	60	0.000356038
7.50575	-0.0578308	6	61	-0.000661214	dWE(1).Potential/dt < 1E-06 V/s
7.60575	-0.0578003	6.1	62	0.000915527
7.70575	-0.0578003	6.2	63	-0.000457764	dWE(1).Potential/dt < 1E-06 V/s
7.80575	-0.0578003	6.3	64	0.000101725
7.90575	-0.0578003	6.4	65	0	dWE(1).Potential/dt < 1E-06 V/s
8.00575	-0.0578308	6.5	66	-0.000559489	dWE(1).Potential/dt < 1E-06 V/s
8.10575	-0.0578003	6.6	67	0.000915527
8.20575	-0.0578308	6.7	68	-0.00101725	dWE(1).Potential/dt < 1E-06 V/s
8.30575	-0.0578308	6.8	69	0.000457764
8.40575	-0.0578003	6.9	70	0.000457764
8.50575	-0.0578308	7	71	-0.000915527	dWE(1).Potential/dt < 1E-06 V/s
8.60575	-0.0578308	7.1	72	0.000457764
8.70575	-0.0578308	7.2	73	-0.000101725	dWE(1).Potential/dt < 1E-06 V/s
8.80575	-0.0578308	7.3	74	0	dWE(1).Potential/dt < 1E-06 V/s
8.90575	-0.0578003	7.4	75	0.000559489
9.00575	-0.0578308	7.5	76	-0.000915527	dWE(1).Potential/dt < 1E-06 V/s
9.10575	-0.0578308	7.6	77	0.000457764
9.20575	-0.0578308	7.7	78	-0.000101725	dWE(1).Potential/dt < 1E-06 V/s
9.30575	-0.0578003	7.8	79	0.000559489
9.40575	-0.0578308	7.9	80	-0.000915527	dWE(1).Potential/dt < 1E-06 V/s
9.50575	-0.0578308	8	81	0.000457764
9.60575	-0.0578308	8.1	82	-0.000101725	dWE(1).Potential/dt < 1E-06 V/s
9.70575	-0.0578613	8.2	83	-0.000559489	dWE(1).Potential/dt < 1E-06 V/s
9.80575	-0.0578308	8.3	84	0.000915527
9.90575	-0.0578308	8.4	85	-0.000457764	dWE(1).Potential/dt < 1E-06 V/s
10.0057	-0.0578308	8.5	86	0.000101725
10.1057	-0.0578308	8.6	87	0	dWE(1).Potential/dt < 1E-06 V/s
10.2057	-0.0578308	8.7	88	0	dWE(1).Potential/dt < 1E-06 V/s
10.3057	-0.0578613	8.8	89	-0.000559489	dWE(1).Potential/dt < 1E-06 V/s
10.4057	-0.0578613	8.9	90	0.000356038
10.5057	-0.0578308	9	91	0.000457764
10.6057	-0.0578918	9.1	92	-0.00147502	dWE(1).Potential/dt < 1E-06 V/s
10.7057	-0.0578918	9.2	93	0.000813802
10.8057	-0.0578613	9.3	94	0.000356038
10.9057	-0.0578613	9.4	95	-0.000356038	dWE(1).Potential/dt < 1E-06 V/s
11.0057	-0.0578308	9.5	96	0.000661214
11.1057	-0.0578613	9.6	97	-0.000915527	dWE(1).Potential/dt < 1E-06 V/s
11.2057	-0.0578613	9.7	98	0.000457764
11.3057	-0.0578613	9.8	99	-0.000101725	dWE(1).Potential/dt < 1E-06 V/s
11.4057	-0.0578613	9.9	100	0	dWE(1).Potential/dt < 1E-06 V/s
11.5057	-0.0578613	10	101	0	dWE(1).Potential/dt < 1E-06 V/s
11.6057	-0.0578613	10.1	102	0	dWE(1).Potential/dt < 1E-06 V/s
11.7057	-0.0578613	10.2	103	0	dWE(1).Potential/dt < 1E-06 V/s , dWE(1).Potential/dt > -1E-06 V/s
11.8057	-0.0578613	10.3	104	0	dWE(1).Potential/dt < 1E-06 V/s , dWE(1).Potential/dt > -1E-06 V/s
11.9057	-0.0578613	10.4	105	0	dWE(1).Potential/dt < 1E-06 V/s , dWE(1).Potential/dt > -1E-06 V/s
12.0057	-0.0578613	10.5	106	0	dWE(1).Potential/dt < 1E-06 V/s , dWE(1).Potential/dt > -1E-06 V/s
12.1057	-0.0578308	10.6	107	0.000559489
12.2057	-0.0578613	10.7	108	-0.000915527	dWE(1).Potential/dt < 1E-06 V/s
12.3057	-0.0578613	10.8	109	0.000457764
12.4057	-0.0578918	10.9	110	-0.000661214	dWE(1).Potential/dt < 1E-06 V/s
12.5057	-0.0578613	11	111	0.000915527
12.6057	-0.0578613	11.1	112	-0.000457764	dWE(1).Potential/dt < 1E-06 V/s
12.7057	-0.0578918	11.2	113	-0.000457764	dWE(1).Potential/dt < 1E-06 V/s
12.8057	-0.0578613	11.3	114	0.000915527
12.9057	-0.0578918	11.4	115	-0.00101725	dWE(1).Potential/dt < 1E-06 V/s
13.0057	-0.0578613	11.5	116	0.00101725
13.1057	-0.0578918	11.6	117	-0.00101725	dWE(1).Potential/dt < 1E-06 V/s
13.2057	-0.0578918	11.7	118	0.000457764
13.3057	-0.0578918	11.8	119	-0.000101725	dWE(1).Potential/dt < 1E-06 V/s
13.4057	-0.0578918	11.9	120	0	dWE(1).Potential/dt < 1E-06 V/s
13.5057	-0.0578613	12	121	0.000559489
13.6057	-0.0578918	12.1	122	-0.000915527	dWE(1).Potential/dt < 1E-06 V/s
13.7057	-0.0578918	12.2	123	0.000457764
13.8057	-0.0578613	12.3	124	0.000457764
13.9057	-0.0578613	12.4	125	-0.000356038	dWE(1).Potential/dt < 1E-06 V/s
14.0057	-0.0578918	12.5	126	-0.000457764	dWE(1).Potential/dt < 1E-06 V/s
14.1057	-0.0578918	12.6	127	0.000356038
14.2057	-0.0579224	12.7	128	-0.000661214	dWE(1).Potential/dt < 1E-06 V/s
14.3057	-0.0578918	12.8	129	0.000915527
14.4057	-0.0579224	12.9	130	-0.00101725	dWE(1).Potential/dt < 1E-06 V/s
14.5057	-0.0578918	13	131	0.00101725
14.6057	-0.0578613	13.1	132	0.000101725
14.7057	-0.0578918	13.2	133	-0.000813802	dWE(1).Potential/dt < 1E-06 V/s
14.8057	-0.0578918	13.3	134	0.000457764
14.9057	-0.0578613	13.4	135	0.000457764
15.0057	-0.0579224	13.5	136	-0.00147502	dWE(1).Potential/dt < 1E-06 V/s
15.1057	-0.0578613	13.6	137	0.00193278
15.2057	-0.0579224	13.7	138	-0.0020345	dWE(1).Potential/dt < 1E-06 V/s
15.3057	-0.0578918	13.8	139	0.00147502
15.4057	-0.0579224	13.9	140	-0.00111898	dWE(1).Potential/dt < 1E-06 V/s
15.5057	-0.0578918	14	141	0.00101725
15.6057	-0.0579224	14.1	142	-0.00101725	dWE(1).Potential/dt < 1E-06 V/s
15.7057	-0.0579529	14.2	143	-0.000101725	dWE(1).Potential/dt < 1E-06 V/s
15.8057	-0.0579224	14.3	144	0.000813802
15.9057	-0.0578918	14.4	145	0.000101725
16.0057	-0.0578918	14.5	146	-0.000254313	dWE(1).Potential/dt < 1E-06 V/s
16.1057	-0.0579224	14.6	147	-0.000457764	dWE(1).Potential/dt < 1E-06 V/s
16.2057	-0.0579224	14.7	148	0.000356038
16.3057	-0.0579224	14.8	149	-0.000101725	dWE(1).Potential/dt < 1E-06 V/s
16.4057	-0.0578918	14.9	150	0.000559489
16.5057	-0.0579224	15	151	-0.000915527	dWE(1).Potential/dt < 1E-06 V/s
16.6057	-0.0579529	15.1	152	-0.000101725	dWE(1).Potential/dt < 1E-06 V/s
16.7057	-0.0579224	15.2	153	0.000813802
16.8057	-0.0579224	15.3	154	-0.000457764	dWE(1).Potential/dt < 1E-06 V/s
16.9057	-0.0579224	15.4	155	0.000101725
17.0057	-0.0579224	15.5	156	0	dWE(1).Potential/dt < 1E-06 V/s
17.1057	-0.0578918	15.6	157	0.000559489
17.2057	-0.0579224	15.7	158	-0.000915527	dWE(1).Potential/dt < 1E-06 V/s
17.3057	-0.0578918	15.8	159	0.00101725
17.4057	-0.0579224	15.9	160	-0.00101725	dWE(1).Potential/dt < 1E-06 V/s
17.5057	-0.0579224	16	161	0.000457764
17.6057	-0.0579224	16.1	162	-0.000101725	dWE(1).Potential/dt < 1E-06 V/s
17.7057	-0.0579529	16.2	163	-0.000559489	dWE(1).Potential/dt < 1E-06 V/s
17.8057	-0.0579224	16.3	164	0.000915527
17.9057	-0.0579224	16.4	165	-0.000457764	dWE(1).Potential/dt < 1E-06 V/s
18.0057	-0.0579224	16.5	166	0.000101725
18.1057	-0.0579529	16.6	167	-0.000559489	dWE(1).Potential/dt < 1E-06 V/s
18.2057	-0.0579224	16.7	168	0.000915527
18.3057	-0.0579529	16.8	169	-0.00101725	dWE(1).Potential/dt < 1E-06 V/s
18.4057	-0.0579224	16.9	170	0.00101725
18.5057	-0.0579224	17	171	-0.000457764	dWE(1).Potential/dt < 1E-06 V/s
18.6057	-0.0579224	17.1	172	0.000101725
18.7057	-0.0579224	17.2	173	0	dWE(1).Potential/dt < 1E-06 V/s
18.8057	-0.0579224	17.3	174	0	dWE(1).Potential/dt < 1E-06 V/s
18.9057	-0.0579529	17.4	175	-0.000559489	dWE(1).Potential/dt < 1E-06 V/s
19.0057	-0.0579224	17.5	176	0.000915527
19.1057	-0.0579529	17.6	177	-0.00101725	dWE(1).Potential/dt < 1E-06 V/s
19.2057	-0.0579529	17.7	178	0.000457764
19.3057	-0.0579224	17.8	179	0.000457764
19.4057	-0.0579529	17.9	180	-0.000915527	dWE(1).Potential/dt < 1E-06 V/s
19.5057	-0.0579224	18	181	0.00101725
19.6057	-0.0579529	18.1	182	-0.00101725	dWE(1).Potential/dt < 1E-06 V/s
19.7057	-0.0579224	18.2	183	0.00101725
19.8057	-0.0579224	18.3	184	-0.000457764	dWE(1).Potential/dt < 1E-06 V/s
19.9057	-0.0579224	18.4	185	0.000101725
20.0057	-0.0579834	18.5	186	-0.00111898	dWE(1).Potential/dt < 1E-06 V/s
20.1057	-0.0579224	18.6	187	0.00183105
20.2057	-0.0579529	18.7	188	-0.00147502	dWE(1).Potential/dt < 1E-06 V/s
20.3057	-0.0579529	18.8	189	0.000559489
20.4057	-0.0579224	18.9	190	0.000457764
20.5057	-0.0579224	19	191	-0.000356038	dWE(1).Potential/dt < 1E-06 V/s
20.6057	-0.0579529	19.1	192	-0.000457764	dWE(1).Potential/dt < 1E-06 V/s
20.7057	-0.0579529	19.2	193	0.000356038
20.8057	-0.0579529	19.3	194	-0.000101725	dWE(1).Potential/dt < 1E-06 V/s
20.9057	-0.0579529	19.4	195	0	dWE(1).Potential/dt < 1E-06 V/s
21.0057	-0.0579529	19.5	196	0	dWE(1).Potential/dt < 1E-06 V/s
21.1057	-0.0579529	19.6	197	0	dWE(1).Potential/dt < 1E-06 V/s
21.2057	-0.0579834	19.7	198	-0.000559489	dWE(1).Potential/dt < 1E-06 V/s
21.3057	-0.0579224	19.8	199	0.00147502
21.4057	-0.0579529	19.9	200	-0.00137329	dWE(1).Potential/dt < 1E-06 V/s
21.5057	-0.0579834	20	201	0	dWE(1).Potential/dt < 1E-06 V/s
21.6057	-0.0579529	20.1	202	0.000813802
21.7057	-0.0579224	20.2	203	0.000101725
21.8057	-0.0579834	20.3	204	-0.00137329	dWE(1).Potential/dt < 1E-06 V/s
21.9057	-0.0579834	20.4	205	0.000813802
22.0057	-0.0579834	20.5	206	-0.00020345	dWE(1).Potential/dt < 1E-06 V/s
22.1057	-0.0579529	20.6	207	0.000559489
22.2057	-0.0579834	20.7	208	-0.000915527	dWE(1).Potential/dt < 1E-06 V/s
22.3057	-0.0579834	20.8	209	0.000457764
22.4057	-0.0579834	20.9	210	-0.000101725	dWE(1).Potential/dt < 1E-06 V/s
22.5057	-0.0579834	21	211	0	dWE(1).Potential/dt < 1E-06 V/s
22.6057	-0.0579529	21.1	212	0.000559489
22.7057	-0.0579834	21.2	213	-0.000915527	dWE(1).Potential/dt < 1E-06 V/s
22.8057	-0.0579529	21.3	214	0.00101725
22.9057	-0.0579529	21.4	215	-0.000457764	dWE(1).Potential/dt < 1E-06 V/s
23.0057	-0.0579834	21.5	216	-0.000457764	dWE(1).Potential/dt < 1E-06 V/s
23.1057	-0.0580139	21.6	217	-0.00020345	dWE(1).Potential/dt < 1E-06 V/s
23.2057	-0.0579529	21.7	218	0.00137329
23.3057	-0.0579834	21.8	219	-0.00137329	dWE(1).Potential/dt < 1E-06 V/s
23.4057	-0.0579529	21.9	220	0.00111898
23.5057	-0.0579834	22	221	-0.00101725	dWE(1).Potential/dt < 1E-06 V/s
23.6057	-0.0579529	22.1	222	0.00101725
23.7057	-0.0579834	22.2	223	-0.00101725	dWE(1).Potential/dt < 1E-06 V/s
23.8057	-0.0579529	22.3	224	0.00101725
23.9057	-0.0579834	22.4	225	-0.00101725	dWE(1).Potential/dt < 1E-06 V/s
24.0057	-0.0579529	22.5	226	0.00101725
24.1057	-0.0579834	22.6	227	-0.00101725	dWE(1).Potential/dt < 1E-06 V/s
24.2057	-0.0579834	22.7	228	0.000457764
24.3057	-0.0579834	22.8	229	-0.000101725	dWE(1).Potential/dt < 1E-06 V/s
24.4057	-0.0580139	22.9	230	-0.000559489	dWE(1).Potential/dt < 1E-06 V/s
24.5057	-0.0579834	23	231	0.000915527
24.6057	-0.0579834	23.1	232	-0.000457764	dWE(1).Potential/dt < 1E-06 V/s
24.7057	-0.0579834	23.2	233	0.000101725
24.8057	-0.0579834	23.3	234	0	dWE(1).Potential/dt < 1E-06 V/s
24.9057	-0.0579834	23.4	235	0	dWE(1).Potential/dt < 1E-06 V/s
25.0057	-0.0580139	23.5	236	-0.000559489	dWE(1).Potential/dt < 1E-06 V/s
25.1057	-0.0579834	23.6	237	0.000915527
25.2057	-0.0579834	23.7	238	-0.000457764	dWE(1).Potential/dt < 1E-06 V/s
25.3057	-0.0580139	23.8	239	-0.000457764	dWE(1).Potential/dt < 1E-06 V/s
25.4057	-0.0579834	23.9	240	0.000915527
25.5057	-0.0579834	24	241	-0.000457764	dWE(1).Potential/dt < 1E-06 V/s
25.6057	-0.0580139	24.1	242	-0.000457764	dWE(1).Potential/dt < 1E-06 V/s
25.7057	-0.0579834	24.2	243	0.000915527
25.8057	-0.0579834	24.3	244	-0.000457764	dWE(1).Potential/dt < 1E-06 V/s
25.9057	-0.0580139	24.4	245	-0.000457764	dWE(1).Potential/dt < 1E-06 V/s
26.0057	-0.0579834	24.5	246	0.000915527
26.1057	-0.0579834	24.6	247	-0.000457764	dWE(1).Potential/dt < 1E-06 V/s
26.2057	-0.0579834	24.7	248	0.000101725
26.3057	-0.0579834	24.8	249	0	dWE(1).Potential/dt < 1E-06 V/s
26.4057	-0.0579834	24.9	250	0	dWE(1).Potential/dt < 1E-06 V/s
26.5057	-0.0580139	25	251	-0.000559489	dWE(1).Potential/dt < 1E-06 V/s
26.6057	-0.0579834	25.1	252	0.000915527
26.7057	-0.0579834	25.2	253	-0.000457764	dWE(1).Potential/dt < 1E-06 V/s
26.8057	-0.0579529	25.3	254	0.000661214
26.9057	-0.0580139	25.4	255	-0.00147502	dWE(1).Potential/dt < 1E-06 V/s
27.0057	-0.0579529	25.5	256	0.00193278
27.1057	-0.0580139	25.6	257	-0.0020345	dWE(1).Potential/dt < 1E-06 V/s
27.2057	-0.0579834	25.7	258	0.00147502
27.3057	-0.0579834	25.8	259	-0.000559489	dWE(1).Potential/dt < 1E-06 V/s
27.4057	-0.0580139	25.9	260	-0.000457764	dWE(1).Potential/dt < 1E-06 V/s
27.5057	-0.0579834	26	261	0.000915527
27.6057	-0.0580444	26.1	262	-0.00157674	dWE(1).Potential/dt < 1E-06 V/s
27.7057	-0.0579834	26.2	263	0.00193278
27.8057	-0.0579834	26.3	264	-0.000915527	dWE(1).Potential/dt < 1E-06 V/s
27.9057	-0.0579834	26.4	265	0.00020345
28.0057	-0.0580139	26.5	266	-0.000559489	dWE(1).Potential/dt < 1E-06 V/s
28.1057	-0.0580139	26.6	267	0.000356038
28.2057	-0.0579834	26.7	268	0.000457764
28.3057	-0.0580444	26.8	269	-0.00147502	dWE(1).Potential/dt < 1E-06 V/s
28.4057	-0.0580444	26.9	270	0.000813802
28.5057	-0.0579834	27	271	0.000915527
28.6057	-0.0580139	27.1	272	-0.00127157	dWE(1).Potential/dt < 1E-06 V/s
28.7057	-0.0580139	27.2	273	0.000559489
28.8057	-0.0579529	27.3	274	0.00101725
28.9057	-0.0580139	27.4	275	-0.00183105	dWE(1).Potential/dt < 1E-06 V/s
29.0057	-0.0580139	27.5	276	0.000915527
29.1057	-0.0580139	27.6	277	-0.00020345	dWE(1).Potential/dt < 1E-06 V/s
29.2057	-0.0580139	27.7	278	0	dWE(1).Potential/dt < 1E-06 V/s
29.3057	-0.0580444	27.8	279	-0.000559489	dWE(1).Potential/dt < 1E-06 V/s
29.4057	-0.0580139	27.9	280	0.000915527
29.5057	-0.0579834	28	281	0.000101725
29.6057	-0.0580139	28.1	282	-0.000813802	dWE(1).Potential/dt < 1E-06 V/s
29.7057	-0.0580139	28.2	283	0.000457764
29.8057	-0.0579834	28.3	284	0.000457764
29.9057	-0.0580139	28.4	285	-0.000915527	dWE(1).Potential/dt < 1E-06 V/s
30.0057	-0.0580139	28.5	286	0.000457764
30.1057	-0.0579834	28.6	287	0.000457764
30.2057	-0.0580139	28.7	288	-0.000915527	dWE(1).Potential/dt < 1E-06 V/s
30.3057	-0.0579834	28.8	289	0.00101725
30.4057	-0.0580444	28.9	290	-0.00157674	dWE(1).Potential/dt < 1E-06 V/s
30.5057	-0.0580444	29	291	0.000813802
30.6057	-0.0580139	29.1	292	0.000356038
30.7057	-0.0580139	29.2	293	-0.000356038	dWE(1).Potential/dt < 1E-06 V/s
30.8057	-0.0580444	29.3	294	-0.000457764	dWE(1).Potential/dt < 1E-06 V/s
30.9057	-0.0580139	29.4	295	0.000915527
31.0057	-0.0580139	29.5	296	-0.000457764	dWE(1).Potential/dt < 1E-06 V/s
31.1057	-0.0580139	29.6	297	0.000101725
31.2057	-0.0580139	29.7	298	0	dWE(1).Potential/dt < 1E-06 V/s
31.3057	-0.0580139	29.8	299	0	dWE(1).Potential/dt < 1E-06 V/s
31.4057	-0.0580139	29.9	300	0	dWE(1).Potential/dt < 1E-06 V/s
31.5057	-0.0580444	30	301	-0.000559489	dWE(1).Potential/dt < 1E-06 V/s
31.6057	-0.0580444	30.1	302	0.000356038
31.7057	-0.0580444	30.2	303	-0.000101725	dWE(1).Potential/dt < 1E-06 V/s
31.8057	-0.0580139	30.3	304	0.000559489
[...]
32.5057	-0.0580139	31	311	0.00101725
32.6057	-0.0580444	31.1	312	-0.00101725	dWE(1).Potential/dt < 1E-06 V/s
32.7057	-0.0580139	31.2	313	0.00101725
32.8057	-0.0580444	31.3	314	-0.00101725	dWE(1).Potential/dt < 1E-06 V/s
32.9057	-0.0580444	31.4	315	0.000457764
33.0057	-0.0580444	31.5	316	-0.000101725	dWE(1).Potential/dt < 1E-06 V/s
33.1057	-0.0580444	31.6	317	0	dWE(1).Potential/dt < 1E-06 V/s
33.2057	-0.0580444	31.7	318	0	dWE(1).Potential/dt < 1E-06 V/s
33.3057	-0.0580444	31.8	319	0	dWE(1).Potential/dt < 1E-06 V/s
33.4057	-0.0580444	31.9	320	0	dWE(1).Potential/dt < 1E-06 V/s , dWE(1).Potential/dt > -1E-06 V/s
33.5057	-0.058075	32	321	-0.000559489	dWE(1).Potential/dt < 1E-06 V/s
33.6057	-0.0580139	32.1	322	0.00147502
33.7057	-0.0580444	32.2	323	-0.00137329	dWE(1).Potential/dt < 1E-06 V/s
33.8057	-0.058075	32.3	324	0	dWE(1).Potential/dt < 1E-06 V/s
33.9057	-0.0580444	32.4	325	0.000813802
34.0057	-0.0580444	32.5	326	-0.000457764	dWE(1).Potential/dt < 1E-06 V/s
34.1057	-0.0580444	32.6	327	0.000101725
34.2057	-0.0580444	32.7	328	0	dWE(1).Potential/dt < 1E-06 V/s
34.3057	-0.0580444	32.8	329	0	dWE(1).Potential/dt < 1E-06 V/s
34.4057	-0.0580444	32.9	330	0	dWE(1).Potential/dt < 1E-06 V/s
34.5057	-0.0580139	33	331	0.000559489
34.6057	-0.0580444	33.1	332	-0.000915527	dWE(1).Potential/dt < 1E-06 V/s
34.7057	-0.0580444	33.2	333	0.000457764
34.8057	-0.058075	33.3	334	-0.000661214	dWE(1).Potential/dt < 1E-06 V/s
34.9057	-0.0580444	33.4	335	0.000915527
35.0057	-0.058075	33.5	336	-0.00101725	dWE(1).Potential/dt < 1E-06 V/s
35.1057	-0.0580444	33.6	337	0.00101725
35.2057	-0.0580444	33.7	338	-0.000457764	dWE(1).Potential/dt < 1E-06 V/s
35.3057	-0.0580444	33.8	339	0.000101725
35.4057	-0.0580444	33.9	340	0	dWE(1).Potential/dt < 1E-06 V/s
35.5057	-0.0580444	34	341	0	dWE(1).Potential/dt < 1E-06 V/s
35.6057	-0.058075	34.1	342	-0.000559489	dWE(1).Potential/dt < 1E-06 V/s
35.7057	-0.0580444	34.2	343	0.000915527
35.8057	-0.058075	34.3	344	-0.00101725	dWE(1).Potential/dt < 1E-06 V/s
35.9057	-0.0580444	34.4	345	0.00101725
36.0057	-0.0580444	34.5	346	-0.000457764	dWE(1).Potential/dt < 1E-06 V/s
36.1057	-0.0580444	34.6	347	0.000101725
36.2057	-0.0580444	34.7	348	0	dWE(1).Potential/dt < 1E-06 V/s
36.3057	-0.0580444	34.8	349	0	dWE(1).Potential/dt < 1E-06 V/s
36.4057	-0.0580444	34.9	350	0	dWE(1).Potential/dt < 1E-06 V/s
36.5057	-0.0580444	35	351	0	dWE(1).Potential/dt < 1E-06 V/s
36.6057	-0.0580444	35.1	352	0	dWE(1).Potential/dt < 1E-06 V/s , dWE(1).Potential/dt > -1E-06 V/s
36.7057	-0.058075	35.2	353	-0.000559489	dWE(1).Potential/dt < 1E-06 V/s
36.8057	-0.058075	35.3	354	0.000356038
36.9057	-0.0580444	35.4	355	0.000457764
37.0057	-0.058075	35.5	356	-0.000915527	dWE(1).Potential/dt < 1E-06 V/s
37.1057	-0.058075	35.6	357	0.000457764
37.2057	-0.0580444	35.7	358	0.000457764
37.3057	-0.058075	35.8	359	-0.000915527	dWE(1).Potential/dt < 1E-06 V/s
37.4057	-0.0580444	35.9	360	0.00101725
37.5057	-0.058075	36	361	-0.00101725	dWE(1).Potential/dt < 1E-06 V/s
37.6057	-0.0580444	36.1	362	0.00101725
37.7057	-0.0580444	36.2	363	-0.000457764	dWE(1).Potential/dt < 1E-06 V/s
37.8057	-0.058075	36.3	364	-0.000457764	dWE(1).Potential/dt < 1E-06 V/s
37.9057	-0.0580444	36.4	365	0.000915527
38.0057	-0.0580444	36.5	366	-0.000457764	dWE(1).Potential/dt < 1E-06 V/s
38.1057	-0.0580139	36.6	367	0.000661214
38.2057	-0.0580444	36.7	368	-0.000915527	dWE(1).Potential/dt < 1E-06 V/s
38.3057	-0.058075	36.8	369	-0.000101725	dWE(1).Potential/dt < 1E-06 V/s
38.4057	-0.058075	36.9	370	0.000254313
38.5057	-0.058075	37	371	-0.000101725	dWE(1).Potential/dt < 1E-06 V/s
38.6057	-0.058075	37.1	372	0	dWE(1).Potential/dt < 1E-06 V/s
38.7057	-0.0580444	37.2	373	0.000559489
38.8057	-0.058075	37.3	374	-0.000915527	dWE(1).Potential/dt < 1E-06 V/s
38.9057	-0.058075	37.4	375	0.000457764
39.0057	-0.058075	37.5	376	-0.000101725	dWE(1).Potential/dt < 1E-06 V/s
39.1057	-0.058075	37.6	377	0	dWE(1).Potential/dt < 1E-06 V/s
39.2057	-0.058075	37.7	378	0	dWE(1).Potential/dt < 1E-06 V/s
39.3057	-0.058075	37.8	379	0	dWE(1).Potential/dt < 1E-06 V/s
39.4057	-0.0580444	37.9	380	0.000559489
39.5057	-0.0580444	38	381	-0.000356038	dWE(1).Potential/dt < 1E-06 V/s
39.6057	-0.0580444	38.1	382	0.000101725
39.7057	-0.0580444	38.2	383	0	dWE(1).Potential/dt < 1E-06 V/s
39.8057	-0.058075	38.3	384	-0.000559489	dWE(1).Potential/dt < 1E-06 V/s
39.9057	-0.0580444	38.4	385	0.000915527
40.0057	-0.058075	38.5	386	-0.00101725	dWE(1).Potential/dt < 1E-06 V/s
40.1057	-0.058075	38.6	387	0.000457764
40.2057	-0.058075	38.7	388	-0.000101725	dWE(1).Potential/dt < 1E-06 V/s
40.3057	-0.058075	38.8	389	0	dWE(1).Potential/dt < 1E-06 V/s
40.4057	-0.0580444	38.9	390	0.000559489
40.5057	-0.058075	39	391	-0.000915527	dWE(1).Potential/dt < 1E-06 V/s
40.6057	-0.058075	39.1	392	0.000457764
40.7057	-0.058075	39.2	393	-0.000101725	dWE(1).Potential/dt < 1E-06 V/s
40.8057	-0.0580444	39.3	394	0.000559489
40.9057	-0.0580444	39.4	395	-0.000356038	dWE(1).Potential/dt < 1E-06 V/s
41.0057	-0.058075	39.5	396	-0.000457764	dWE(1).Potential/dt < 1E-06 V/s
41.1057	-0.058075	39.6	397	0.000356038
41.2057	-0.058075	39.7	398	-0.000101725	dWE(1).Potential/dt < 1E-06 V/s
41.3057	-0.058075	39.8	399	0	dWE(1).Potential/dt < 1E-06 V/s
41.4057	-0.058075	39.9	400	0	dWE(1).Potential/dt < 1E-06 V/s
41.5057	-0.058075	40	401	0	dWE(1).Potential/dt < 1E-06 V/s
41.6057	-0.058075	40.1	402	0	dWE(1).Potential/dt < 1E-06 V/s , dWE(1).Potential/dt > -1E-06 V/s
41.7057	-0.0581055	40.2	403	-0.000559489	dWE(1).Potential/dt < 1E-06 V/s
41.8057	-0.0581055	40.3	404	0.000356038
41.9057	-0.058075	40.4	405	0.000457764
42.0057	-0.058075	40.5	406	-0.000356038	dWE(1).Potential/dt < 1E-06 V/s
42.1057	-0.058075	40.6	407	0.000101725
42.2057	-0.058075	40.7	408	0	dWE(1).Potential/dt < 1E-06 V/s
42.3057	-0.0581055	40.8	409	-0.000559489	dWE(1).Potential/dt < 1E-06 V/s
42.4057	-0.058075	40.9	410	0.000915527
42.5057	-0.058075	41	411	-0.000457764	dWE(1).Potential/dt < 1E-06 V/s
42.6057	-0.058075	41.1	412	0.000101725
42.7057	-0.058075	41.2	413	0	dWE(1).Potential/dt < 1E-06 V/s
42.8057	-0.0581055	41.3	414	-0.000559489	dWE(1).Potential/dt < 1E-06 V/s
42.9057	-0.058075	41.4	415	0.000915527
43.0057	-0.058075	41.5	416	-0.000457764	dWE(1).Potential/dt < 1E-06 V/s
43.1057	-0.0581055	41.6	417	-0.000457764	dWE(1).Potential/dt < 1E-06 V/s
43.2057	-0.0581055	41.7	418	0.000356038
43.3057	-0.058075	41.8	419	0.000457764
43.4057	-0.058075	41.9	420	-0.000356038	dWE(1).Potential/dt < 1E-06 V/s
43.5057	-0.0581055	42	421	-0.000457764	dWE(1).Potential/dt < 1E-06 V/s
43.6057	-0.0581055	42.1	422	0.000356038
43.7057	-0.058075	42.2	423	0.000457764
43.8057	-0.0581055	42.3	424	-0.000915527	dWE(1).Potential/dt < 1E-06 V/s
43.9057	-0.0581055	42.4	425	0.000457764
44.0057	-0.0581055	42.5	426	-0.000101725	dWE(1).Potential/dt < 1E-06 V/s
44.1057	-0.0581055	42.6	427	0	dWE(1).Potential/dt < 1E-06 V/s
44.2057	-0.058075	42.7	428	0.000559489
44.3057	-0.0581055	42.8	429	-0.000915527	dWE(1).Potential/dt < 1E-06 V/s
44.4057	-0.058075	42.9	430	0.00101725
44.5057	-0.058075	43	431	-0.000457764	dWE(1).Potential/dt < 1E-06 V/s
44.6057	-0.058136	43.1	432	-0.00101725	dWE(1).Potential/dt < 1E-06 V/s
44.7057	-0.058075	43.2	433	0.00183105
44.8057	-0.058075	43.3	434	-0.000915527	dWE(1).Potential/dt < 1E-06 V/s
44.9057	-0.0581055	43.4	435	-0.000356038	dWE(1).Potential/dt < 1E-06 V/s
45.0057	-0.058075	43.5	436	0.000915527
45.1057	-0.058075	43.6	437	-0.000457764	dWE(1).Potential/dt < 1E-06 V/s
45.2057	-0.058075	43.7	438	0.000101725
45.3057	-0.058075	43.8	439	0	dWE(1).Potential/dt < 1E-06 V/s
45.4057	-0.058075	43.9	440	0	dWE(1).Potential/dt < 1E-06 V/s
45.5057	-0.058075	44	441	0	dWE(1).Potential/dt < 1E-06 V/s
45.6057	-0.0581055	44.1	442	-0.000559489	dWE(1).Potential/dt < 1E-06 V/s
45.7057	-0.0581055	44.2	443	0.000356038
45.8057	-0.058075	44.3	444	0.000457764
45.9057	-0.0581055	44.4	445	-0.000915527	dWE(1).Potential/dt < 1E-06 V/s
46.0057	-0.0581055	44.5	446	0.000457764
46.1057	-0.0581055	44.6	447	-0.000101725	dWE(1).Potential/dt < 1E-06 V/s
46.2057	-0.0581055	44.7	448	0	dWE(1).Potential/dt < 1E-06 V/s
46.3057	-0.0581055	44.8	449	0	dWE(1).Potential/dt < 1E-06 V/s
46.4057	-0.0581055	44.9	450	0	dWE(1).Potential/dt < 1E-06 V/s
46.5057	-0.0581055	45	451	0	dWE(1).Potential/dt < 1E-06 V/s , dWE(1).Potential/dt > -1E-06 V/s
46.6057	-0.0581055	45.1	452	0	dWE(1).Potential/dt < 1E-06 V/s , dWE(1).Potential/dt > -1E-06 V/s
46.7057	-0.0581055	45.2	453	0	dWE(1).Potential/dt < 1E-06 V/s , dWE(1).Potential/dt > -1E-06 V/s
46.8057	-0.0581055	45.3	454	0	dWE(1).Potential/dt < 1E-06 V/s , dWE(1).Potential/dt > -1E-06 V/s
46.9057	-0.0581055	45.4	455	0	dWE(1).Potential/dt < 1E-06 V/s , dWE(1).Potential/dt > -1E-06 V/s