File: data/20200205/OCP_p27_1.txt
Time (s)	WE(1).Potential (V)	Corrected time (s)	Index	dWE(1).Potential/dt (V/s)	OCP value (V)
4.35227	-0.0199066	0	1	0	-0.0190332
4.85227	-0.0198853	0.5	6	0.000610383
5.35227	-0.0198792	1	11	-0.000447656
5.85227	-0.0198853	1.5	16	0.000478123
6.35227	-0.01987	2	21	0.000356076
6.85227	-0.019873	2.5	26	-5.59912e-05
7.35227	-0.019873	3	31	0.000193262
7.85227	-0.0198761	3.5	36	-0.000289921
8.35227	-0.0198639	4	41	0.00042215
8.85227	-0.0198425	4.5	46	0.000264521
9.35227	-0.0198517	5	51	0.000295
9.85227	-0.0198456	5.5	56	-6.10327e-05
10.3523	-0.0198303	6	61	0.000539162
10.8523	-0.0198456	6.5	66	0.000239052
11.3523	-0.0198395	7	71	5.59601e-05
11.8523	-0.0198181	7.5	76	0.000417071
12.3523	-0.0198181	8	81	0.00070187
12.8523	-0.0198273	8.5	86	3.04729e-05
13.3523	-0.0198181	9	91	0.000391665
13.8523	-0.0198212	9.5	96	-0.00031023
14.3523	-0.019812	10	101	0.000396719
14.8523	-0.019809	10.5	106	0.000305213
15.3523	-0.0198029	11	111	6.60991e-05
15.8523	-0.0197998	11.5	116	-6.10327e-05
16.3523	-0.0197906	12	121	6.61674e-05
16.8523	-0.0197876	12.5	126	0.000381445
17.3523	-0.0198059	13	131	-0.000167856
17.8523	-0.0197876	13.5	136	0.000478042
18.3523	-0.0197815	14	141	0.000249235
18.8523	-0.0197815	14.5	146	5.10986e-06
19.3523	-0.0197662	15	151	0.000508583
19.8523	-0.0197723	15.5	156	-2.54438e-05
20.3523	-0.0197723	16	161	2.03277e-05
20.8523	-0.0197601	16.5	166	-0.000198341
21.3523	-0.0197693	17	171	0.000137333
21.8523	-0.0197479	17.5	176	0.000498519
22.3523	-0.0197449	18	181	0.000335686
22.8523	-0.019751	18.5	186	-0.000330632
23.3523	-0.019754	19	191	-0.000228888
23.8523	-0.0197388	19.5	196	-0.000233967
24.3523	-0.0197357	20	201	0.000330601
24.8523	-0.0197296	20.5	206	1.01452e-05
25.3523	-0.0197388	21	211	-5.59477e-05
25.8523	-0.0197296	21.5	216	-0.000244137
26.3523	-0.0197296	22	221	-0.000172965
26.8523	-0.0197296	22.5	226	0.000427273
27.3523	-0.0197235	23	231	-0.000218712
27.8523	-0.0197083	23.5	236	0.000244168
28.3523	-0.0197052	24	241	0.000111895
28.8523	-0.0197174	24.5	246	9.1605e-05
29.3523	-0.0197113	25	251	-8.14101e-05
29.8523	-0.019693	25.5	256	-0.000167849
30.3523	-0.0197083	26	261	-3.05226e-05
30.8523	-0.019693	26.5	266	-0.000208517
31.3523	-0.0196808	27	271	0.000340728
31.8523	-0.0196808	27.5	276	-0.000356064
32.3523	-0.0196899	28	281	0.000391603
32.8523	-0.0196869	28.5	286	-0.000218718
33.3523	-0.0196655	29	291	0.000106817
33.8523	-0.0196625	29.5	296	0.000335736
34.3523	-0.0196747	30	301	-5.10365e-06
34.8523	-0.0196655	30.5	306	-0.000218724
35.3523	-0.0196594	31	311	0.000376348
35.8523	-0.0196564	31.5	316	-0.000218718
36.3523	-0.0196472	32	321	-0.000269575
36.8523	-0.0196594	32.5	326	-0.000279788
37.3523	-0.0196533	33	331	-0.000656111
37.8523	-0.0196411	33.5	336	0.000178069
38.3523	-0.0196259	34	341	0.000132248
38.8523	-0.019635	34.5	346	0.000213615
39.3523	-0.0196289	35	351	-9.66465e-05
39.8523	-0.0196411	35.5	356	-0.000564531
40.3523	-0.0196289	36	361	-0.000218755
40.8523	-0.0196167	36.5	366	0.000101738
41.3523	-0.0196228	37	371	-0.000213652
41.8523	-0.0196075	37.5	376	0.00027972
42.3523	-0.0196075	38	381	-0.000274703
42.8523	-0.0196136	38.5	386	-0.000106829
43.3523	-0.0196014	39	391	-0.000157642
43.8523	-0.0195984	39.5	396	2.54065e-05
44.3523	-0.0196075	40	401	-0.000498432
44.8523	-0.0195984	40.5	406	0.000183067
45.3523	-0.0195862	41	411	0.000386536
45.8523	-0.0195953	41.5	416	-0.000203413
46.3523	-0.019577	42	421	0.00026955
46.8523	-0.0195923	42.5	426	-0.000147509
47.3523	-0.019577	43	431	-0.000310255
47.8523	-0.019574	43.5	436	7.62506e-05
48.3523	-0.0195587	44	441	0.000142368
48.8523	-0.0195709	44.5	446	-1.01514e-05
49.3523	-0.0195709	45	451	5.12849e-06
49.8523	-0.0195557	45.5	456	6.61364e-05
50.3523	-0.0195526	46	461	-5.08503e-05
50.8523	-0.0195557	46.5	466	0.000559527
51.3523	-0.0195648	47	471	-0.000620497
51.8523	-0.0195435	47.5	476	0.000284836
52.3523	-0.0195435	48	481	3.55579e-05
52.8523	-0.01953125	48.5	486	9.66093e-05
53.3523	-0.0195435	49	491	-0.000468002
53.8523	-0.0195404	49.5	496	-7.62692e-05
54.3523	-0.0195251	50	501	-4.58025e-05
54.8523	-0.019519	50.5	506	-6.61178e-05
55.3523	-0.0195099	51	511	-0.000188196
55.8523	-0.0195129	51.5	516	0.000462843
56.3523	-0.0195129	52	521	-0.0002187
56.8523	-0.019519	52.5	526	-0.00021359
57.3523	-0.0195038	53	531	0.000213621
57.8523	-0.0195007	53.5	536	-0.000259423
58.3523	-0.0194977	54	541	-0.000218774
58.8523	-0.0194824	54.5	546	0.000452642
59.3523	-0.0194824	55	551	0.00023904
59.8523	-0.0194855	55.5	556	-0.000478086
60.3523	-0.0194733	56	561	0.000386605
60.8523	-0.0194794	56.5	566	-0.000284805
61.3523	-0.0194611	57	571	0.000361118
61.8523	-0.019458	57.5	576	5.08751e-05
62.3523	-0.0194733	58	581	-0.000620497
62.8523	-0.0194794	58.5	586	0.000137327
63.3523	-0.0194489	59	591	0.000518822
63.8523	-0.0194427	59.5	596	-6.09831e-05
64.3523	-0.0194489	60	601	-0.000401798
64.8523	-0.0194427	60.5	606	0.000467953
65.3523	-0.0194427	61	611	-0.000457752
65.8523	-0.0194366	61.5	616	-0.000218774
66.3523	-0.0194397	62	621	-0.000686621
66.8523	-0.0194458	62.5	626	-0.000615443
67.3523	-0.0194366	63	631	-0.000152594
67.8523	-0.0194214	63.5	636	0.00021359
68.3523	-0.0194244	64	641	-0.000279757
68.8523	-0.0194244	64.5	646	-9.15677e-05
69.3523	-0.0194183	65	651	0.000167824
69.8523	-0.0194092	65.5	656	0.000228907
70.3523	-0.0194092	66	661	0.000264483
70.8523	-0.0194092	66.5	666	-2.54251e-05
71.3523	-0.0194031	67	671	3.0535e-05
71.8523	-0.0193909	67.5	676	0.000381445
72.3523	-0.0194	68	681	-0.000305188
72.8523	-0.019397	68.5	686	-0.000183073
73.3523	-0.0193848	69	691	0.000111895
73.8523	-0.0193878	69.5	696	8.13915e-05
74.3523	-0.0193787	70	701	0.000361142
74.8523	-0.0193848	70.5	706	-2.03649e-05
75.3523	-0.0193756	71	711	-4.57839e-05
75.8523	-0.0193817	71.5	716	-0.000203463
76.3523	-0.0193695	72	721	0.000345831
76.8523	-0.0193665	72.5	726	-6.60991e-05
77.3523	-0.0193634	73	731	-0.00031023
77.8523	-0.0193573	73.5	736	0.000274672
78.3523	-0.0193542	74	741	-0.000305188
78.8523	-0.0193481	74.5	746	0.000239027
79.3523	-0.0193542	75	751	-0.00053918
79.8523	-0.0193451	75.5	756	-6.6155e-05
80.3523	-0.019339	76	761	0.000172916
80.8523	-0.0193359	76.5	766	-0.000228894
81.3523	-0.0193176	77	771	0.000498482
81.8523	-0.0193237	77.5	776	-9.15367e-05
82.3523	-0.0193115	78	781	0.000228926
82.8523	-0.0193237	78.5	786	-0.000534071
83.3523	-0.0193115	79	791	-0.000284805
83.8523	-0.0193024	79.5	796	0.000172941
84.3523	-0.0193085	80	801	-6.60867e-05
84.8523	-0.0193024	80.5	806	-0.000147484
85.3523	-0.0193085	81	811	-0.000259392
85.8523	-0.0192871	81.5	816	0.0001526
86.3523	-0.0192902	82	821	-3.05039e-05
86.8523	-0.019281	82.5	826	0.000447613
87.3523	-0.019281	83	831	-0.000116999
87.8523	-0.0192871	83.5	836	-0.000274653
88.3523	-0.0192627	84	841	0.000829008
88.8523	-0.0192688	84.5	846	-8.13853e-05
89.3523	-0.0192719	85	851	0.000259423
89.8523	-0.019278	85.5	856	0.000208542
90.3523	-0.0192688	86	861	-0.000193324
90.8523	-0.0192596	86.5	866	0.00041709
91.3523	-0.0192627	87	871	-5.08565e-05
91.8523	-0.0192444	87.5	876	0.000142418
92.3523	-0.0192627	88	881	0.000162746
92.8523	-0.0192444	88.5	886	0.000157723
93.3523	-0.0192413	89	891	-0.000142443
93.8523	-0.0192352	89.5	896	7.63064e-05
94.3523	-0.0192261	90	901	0.000142406
94.8523	-0.0192322	90.5	906	-3.562e-05
95.3523	-0.0192169	91	911	0.000122065
95.8523	-0.0192322	91.5	916	-7.12152e-05
96.3523	-0.0192291	92	921	0.000269575
96.8523	-0.01922	92.5	926	-0.00057983
97.3523	-0.0192139	93	931	-0.000152551
97.8523	-0.01922	93.5	936	0.000223834
98.3523	-0.0191956	94	941	0.000411993
98.8523	-0.0191925	94.5	946	0.000223785
99.3523	-0.0191986	95	951	0.000508639
99.8523	-0.0192017	95.5	956	-0.000386611
100.352	-0.0191986	96	961	-5.59042e-05
100.852	-0.0191956	96.5	966	7.12214e-05
101.352	-0.0191895	97	971	-0.000457745
101.852	-0.0191803	97.5	976	-0.000116968
102.352	-0.0191742	98	981	-0.000203426
102.852	-0.0191833	98.5	986	-0.000132267
103.352	-0.019165	99	991	0.000361093
103.852	-0.019165	99.5	996	0.000350966
104.352	-0.0191681	100	1001	5.5985e-05
104.852	-0.019162	100.5	1006	-0.000249241
105.352	-0.019165	101	1011	-7.12214e-05
105.852	-0.0191345	101.5	1016	0.000401804
106.352	-0.0191406	102	1021	0.000223778
106.852	-0.0191406	102.5	1026	0.000101719
107.352	-0.0191498	103	1031	-0.000233973
107.852	-0.0191284	103.5	1036	0.000330651
108.352	-0.0191284	104	1041	0.000361161
108.852	-0.0191223	104.5	1046	0.000122078
109.352	-0.0191193	105	1051	-0.000162764
109.852	-0.0191376	105.5	1056	-0.000422125
110.352	-0.0191132	106	1061	-7.62568e-05
110.852	-0.0191193	106.5	1066	0.000366246
111.352	-0.0191193	107	1071	-0.000228907
111.852	-0.019104	107.5	1076	0.000264483
112.352	-0.019104	108	1081	-0.00033062
112.852	-0.0191071	108.5	1086	-0.000513668
113.352	-0.0190979	109	1091	-0.000127119
113.852	-0.0190918	109.5	1096	0.000142461
114.352	-0.0190918	110	1101	0.000157723
114.852	-0.0190826	110.5	1106	-1.52365e-05
115.352	-0.0190826	111	1111	-0.000900255
115.852	-0.0190765	111.5	1116	0.000106835
116.352	-0.0190704	112	1121	0.000381495
116.852	-0.0190643	112.5	1126	0.000137296
117.352	-0.0190643	113	1131	0.000193262
117.852	-0.0190521	113.5	1136	0.000111933
118.352	-0.0190521	114	1141	-0.000106779
118.852	-0.0190399	114.5	1146	2.53941e-05
119.352	-0.019046	115	1151	0.000122078
119.852	-0.019043	115.5	1156	0.00031028
120.352	-0.019046	116	1161	-7.63002e-05
120.852	-0.0190399	116.5	1166	2.03277e-05
121.352	-0.0190369	117	1171	-3.55766e-05
121.852	-0.0190399	117.5	1176	-0.000320437
122.352	-0.0190308	118	1181	8.13853e-05
122.852	-0.0190155	118.5	1186	9.66714e-05
123.352	-0.0190216	119	1191	-3.05226e-05
123.852	-0.0190247	119.5	1196	-0.000442503
124.252	-0.0190277	119.9	1200	-0.000727364