File: data/20200205/OCP_p29_1.txt
Time (s);WE(1).Potential (V);Corrected time (s);Index;dWE(1).Potential/dt (V/s);OCP value (V)
4.3648;-0.00397644;0;1;0;-0.00436189
4.6648;-0.00398865;0.3;4;9.66481e-05;
4.9648;-0.00399475;0.6;7;-0.000203446;
5.2648;-0.00398254;0.9;10;0.000269578;
5.5648;-0.00400696;1.2;13;-0.000539143;
5.8648;-0.0039917;1.5;16;0.000233962;
6.1648;-0.00400391;1.8;19;-0.000544227;
6.4648;-0.00399475;2.1;22;0.000442507;
6.7648;-0.00400391;2.4;25;0.000244146;
7.0648;-0.00401611;2.7;28;0.000325515;
7.3648;-0.00401306;3;31;-0.000218703;
7.6648;-0.00402222;3.3;34;-3.05164e-05;
7.9648;-0.00402527;3.6;37;-0.000605253;
8.2648;-0.00402527;3.9;40;9.15584e-05;
8.5648;-0.00402832;4.2;43;0.000218703;
8.8648;-0.00404053;4.5;46;-0.000178013;
9.1648;-0.00401917;4.8;49;0.000254304;
9.4648;-0.00403442;5.1;52;-5.08658e-06;
9.7648;-0.00403137;5.4;55;-0.000172942;
10.0648;-0.00403748;5.7;58;-0.00020346;
10.3648;-0.00404968;6;61;-0.000132234;
10.6648;-0.00404053;6.3;64;0.000305187;
10.9648;-0.00404663;6.6;67;-0.000295003;
11.2648;-0.00406494;6.9;70;-0.000564571;
11.5648;-0.00405273;7.2;73;0.000452684;
11.8648;-0.00406494;7.5;76;-0.000361116;
12.1648;-0.00406799;7.8;79;-1.0184e-05;
12.4648;-0.00407104;8.1;82;-0.000422161;
12.7648;-0.00405884;8.4;85;0.000269578;
13.0648;-0.0040802;8.7;88;-0.000391646;
13.3648;-0.00408325;9;91;8.13775e-05;
13.6648;-0.00406494;9.3;94;0.000564582;
13.9648;-0.00408936;9.6;97;-0.000310256;
14.2648;-0.0040863;9.9;100;-0.000172922;
14.5648;-0.00408936;10.2;103;8.13759e-05;
14.8648;-0.0040802;10.5;106;0.000213627;
15.1648;-0.00409241;10.8;109;5.08347e-06;
15.4648;-0.00408936;11.1;112;-0.000264487;
15.7648;-0.00410156;11.4;115;-0.000361124;
16.0648;-0.0040863;11.7;118;0.000325532;
16.3648;-0.00410767;12;121;0.000111892;
16.6648;-0.00410767;12.3;124;-0.000183114;
16.9648;-0.00410461;12.6;127;5.59384e-05;
17.2648;-0.00411377;12.9;130;-0.000305176;
17.5648;-0.00411072;13.2;133;0.000101727;
17.8648;-0.00411377;13.5;136;3.56123e-05;
18.1648;-0.00411377;13.8;139;-9.15475e-05;
18.4648;-0.00411377;14.1;142;0.000137328;
18.7648;-0.00412292;14.4;145;-0.000350965;
19.0648;-0.00412598;14.7;148;-1.01669e-05;
19.3648;-0.00412598;15;151;-0.0001831;
19.6648;-0.00412598;15.3;154;-0.0001831;
19.9648;-0.00412903;15.6;157;-0.000239054;
20.2648;-0.00412903;15.9;160;-0.000183109;
20.5648;-0.00413208;16.2;163;-0.000147489;
20.8648;-0.00413513;16.5;166;-0.000193271;
21.1648;-0.00414124;16.8;169;-0.000340771;
21.4648;-0.00415039;17.1;172;-0.000350949;
21.7648;-0.00413818;17.4;175;-5.08751e-05;
22.0648;-0.00414124;17.7;178;-0.0001475;
22.3648;-0.0041626;18;181;-0.00016276;
22.6648;-0.00414734;18.3;184;5.09434e-06;
22.9648;-0.00414124;18.6;187;0.000111899;
23.2648;-0.00414734;18.9;190;7.12136e-05;
23.5648;-0.00415039;19.2;193;0.00031027;
23.8648;-0.00415955;19.5;196;-0.000213627;
24.1648;-0.0041626;19.8;199;-1.01685e-05;
24.4648;-0.00415649;20.1;202;0.000295009;
24.7648;-0.0041687;20.4;205;-0.000223792;
25.0648;-0.0041687;20.7;208;-0.000228885;
25.3648;-0.00416565;21;211;1.01732e-05;
25.6648;-0.00416565;21.3;214;-0.000137333;
25.9648;-0.00417786;21.6;217;-0.000452673;
26.2648;-0.00417786;21.9;220;3.10441e-09;
26.5648;-0.00418701;22.2;223;-0.000213618;
26.8648;-0.00417786;22.5;226;0.000305187;
27.1648;-0.00418396;22.8;229;0.000300088;
27.4648;-0.00418701;23.1;232;0.000218709;
27.7648;-0.00418091;23.4;235;6.61286e-05;
28.0648;-0.00418396;23.7;238;-1.01887e-05;
28.3648;-0.00418701;24;241;3.56107e-05;
28.6648;-0.00418701;24.3;244;0.000595089;
28.9648;-0.00419922;24.6;247;-4.06942e-05;
29.2648;-0.00419312;24.9;250;0.000157682;
29.5648;-0.00419617;25.2;253;0.000310264;
29.8648;-0.00420227;25.5;256;-0.000157673;
30.1648;-0.00419312;25.8;259;0.000167848;
30.4648;-0.00419617;26.1;262;0.000264487;
30.7648;-0.00421143;26.4;265;0.000223803;
31.0648;-0.00420837;26.7;268;-0.000264477;
31.3648;-0.00420837;27;271;-0.000137317;
31.6648;-0.00420532;27.3;274;0.000239049;
31.9648;-0.00421753;27.6;277;9.66357e-05;
32.2648;-0.00422363;27.9;280;-0.000111897;
32.5648;-0.00422668;28.2;283;-0.000147506;
32.8648;-0.00421448;28.5;286;0.000361118;
33.1648;-0.00422668;28.8;289;-8.64672e-05;
33.4648;-0.00422668;29.1;292;-0.000228876;
33.7648;-0.00422974;29.4;295;-0.000147503;
34.0648;-0.00422363;29.7;298;6.61271e-05;
34.3648;-0.00423279;30;301;0.000473029;
34.6648;-0.00422668;30.3;304;0.000111894;
34.9648;-0.004245;30.6;307;-6.10327e-05;
35.2648;-0.00422974;30.9;310;0.000142402;
35.5648;-0.00423584;31.2;313;0.000116984;
35.8648;-0.0042511;31.5;316;-0.000325527;
36.1648;-0.00424805;31.8;319;-8.13713e-05;
36.4648;-0.00424805;32.1;322;4.65662e-09;
36.7648;-0.004245;32.4;325;0.000284834;
37.0648;-0.00424194;32.7;328;0.000330617;
37.3648;-0.00425415;33;331;5.08751e-05;
37.6648;-0.0042572;33.3;334;-0.000193278;
37.9648;-0.00425415;33.6;337;-0.000172922;
38.2648;-0.00426025;33.9;340;-0.000386558;
38.5648;-0.004245;34.2;343;0.000325513;
38.8648;-0.004245;34.5;346;0.000228879;
39.1648;-0.0042511;34.8;349;0.000345872;
39.4648;-0.0042572;35.1;352;2.54329e-05;
39.7648;-0.0042572;35.4;355;4.57777e-05;
40.0648;-0.0042511;35.7;358;-7.1209e-05;
40.3648;-0.00427551;36;361;-0.00031026;
40.6648;-0.00426941;36.3;364;-0.000208533;
40.9648;-0.0042572;36.6;367;0.000315355;
41.2648;-0.00427246;36.9;370;-0.000279751;
41.5648;-0.00426941;37.2;373;0.000376385;
41.8648;-0.00427246;37.5;376;3.56045e-05;
42.1648;-0.00428162;37.8;379;-0.000350954;
42.4648;-0.00427856;38.1;382;-0.000127155;
42.7648;-0.00428162;38.4;385;0.000127143;
43.0648;-0.00427856;38.7;388;-0.000172927;
43.3648;-0.00427246;39;391;2.03448e-05;
43.6648;-0.00428467;39.3;394;-8.64703e-05;
43.9648;-0.00427856;39.6;397;-0.000300082;
44.2648;-0.00429077;39.9;400;-0.00026957;
44.5648;-0.00429077;40.2;403;4.57745e-05;
44.8648;-0.00428467;40.5;406;0.000386558;
45.1648;-0.00428467;40.8;409;4.5787e-05;
45.4648;-0.00427856;41.1;412;2.03432e-05;
45.7648;-0.00429688;41.4;415;0.000167842;
46.0648;-0.00429993;41.7;418;-0.000284834;
46.3648;-0.00429688;42;421;-8.13759e-05;
46.6648;-0.00429077;42.3;424;0.000157668;
46.9648;-0.00429688;42.6;427;-0.000432336;
47.2648;-0.00429077;42.9;430;0.00038655;
47.5648;-0.00430298;43.2;433;-0.000178022;
47.8648;-0.00430908;43.5;436;0.000345875;
48.1648;-0.00429382;43.8;439;0.000233959;
48.4648;-0.00430603;44.1;442;-0.00026957;
48.7648;-0.00431519;44.4;445;-7.62847e-05;
49.0648;-0.00430603;44.7;448;-0.00024414;
49.3648;-0.00432129;45;451;-0.000783283;
49.6648;-0.00430908;45.3;454;-0.000279748;
49.9648;-0.00431824;45.6;457;-0.000167838;
50.2648;-0.00431519;45.9;460;0.000330614;
50.5648;-0.00432434;46.2;463;-0.000579839;
50.8648;-0.00432434;46.5;466;-0.000137328;
51.1648;-0.00431213;46.8;469;-5.09279e-06;
51.4648;-0.00432434;47.1;472;5.09279e-06;
51.7648;-0.00431213;47.4;475;0.000269573;
52.0648;-0.00431824;47.7;478;7.12043e-05;
52.3648;-0.00431519;48;481;5.59601e-05;
52.6648;-0.00432434;48.3;484;1.52644e-05;
52.9648;-0.00431824;48.6;487;0.000478109;
53.2648;-0.00433044;48.9;490;0.000233967;
53.5648;-0.00431824;49.2;493;0.000361121;
53.8648;-0.0043396;49.5;496;-0.000391646;
54.1648;-0.00434265;49.8;499;0.000447586;
54.4648;-0.00433655;50.1;502;-0.000208534;
54.7648;-0.00434265;50.4;505;-0.000111911;
55.0648;-0.0043396;50.7;508;-0.00021871;
55.3648;-0.00433655;51;511;-0.000264497;
55.6648;-0.0043457;51.3;514;-0.000213618;
55.9648;-0.0043396;51.6;517;0.000478107;
56.2648;-0.00435486;51.9;520;-0.000508622;
56.5648;-0.00434875;52.2;523;0.000203449;
56.8648;-0.00435486;52.5;526;2.54375e-05;
57.1648;-0.00433655;52.8;529;0.000747677;
57.4648;-0.00434265;53.1;532;0.000208526;
57.7648;-0.00434265;53.4;535;-0.000137325;
58.0648;-0.0043457;53.7;538;-5.59399e-05;
58.3648;-0.00434875;54;541;8.13821e-05;
58.6648;-0.00435486;54.3;544;-0.000432333;
58.9648;-0.00435791;54.6;547;-0.000376393;
59.2648;-0.00436096;54.9;550;-0.000284822;
59.5648;-0.00434875;55.2;553;8.64548e-05;
59.8648;-0.00436096;55.5;556;-0.000132236;
60.1648;-0.00435181;55.8;559;0.000213611;
60.4648;-0.00436401;56.1;562;-0.000361121;
60.7648;-0.00435791;56.4;565;0.000249222;
61.0648;-0.00436707;56.7;568;-7.62987e-05;
61.3648;-0.00435181;57;571;0.000188199;
61.6648;-0.00435181;57.3;574;-9.15584e-05;
61.9648;-0.00435791;57.6;577;-0.000111911;
62.2648;-0.00437927;57.9;580;-0.000254312;
62.5648;-0.00437622;58.2;583;-0.000264477;
62.8648;-0.00436707;58.5;586;0.000122069;
63.1648;-0.00437012;58.8;589;-5.59446e-05;
63.4648;-0.00437012;59.1;592;-1.55221e-09;
63.7648;-0.00436401;59.4;595;0.000706985;
64.0648;-0.00437317;59.7;598;-0.000167843;
64.2648;-0.00437622;59.9;600;1.52582e-05;