File: data/20200205/OCP_p30_1.txt
Time (s)	WE(1).Potential (V)	Corrected time (s)	Index	dWE(1).Potential/dt (V/s)	OCP value (V)
1.25574	0.0052063	0	1	0	0.00534267
1.55574	0.0052002	0.3	4	-0.000295015
1.85574	0.00520325	0.6	7	0.000101722
2.15574	0.00520325	0.9	10	-0.000228876
2.45574	0.00521851	1.2	13	9.66278e-05
2.75574	0.00521545	1.5	16	0.00072224
3.05574	0.00520935	1.8	19	-2.03432e-05
3.35574	0.0052002	2.1	22	-0.000259403
3.65574	0.00520325	2.4	25	0.00028482
3.95574	0.00520935	2.7	28	2.03463e-05
4.25574	0.00520935	3	31	-0.000228893
4.55574	0.00519714	3.3	34	-0.000223795
4.85574	0.0052002	3.6	37	-0.000172929
5.15574	0.0052002	3.9	40	-0.000228885
5.45574	0.0052002	4.2	43	0.000137336
5.75574	0.0052063	4.5	46	0.000157676
6.05574	0.00519714	4.8	49	-0.000213624
6.35574	0.0052063	5.1	52	-0.000198361
6.65574	0.00520325	5.4	55	-0.00019329
6.95574	0.00520935	5.7	58	6.61177e-05
7.25574	0.00520935	6	61	0.00036621
7.55574	0.00521545	6.3	64	-2.54298e-05
7.85574	0.00520935	6.6	67	-0.000203454
8.15574	0.0052063	6.9	70	-0.000330605
8.45574	0.00522461	7.2	73	0.000289905
8.75574	0.00519409	7.5	76	-0.000284834
9.05574	0.00520325	7.8	79	3.05241e-05
9.35574	0.00522156	8.1	82	-0.000167843
9.65574	0.00521851	8.4	85	-0.000239061
9.95574	0.00520935	8.7	88	1.52675e-05
10.2557	0.00523071	9	91	0.000162753
10.5557	0.00522461	9.3	94	0.000437414
10.8557	0.00521851	9.6	97	-0.000157678
11.1557	0.00523071	9.9	100	-5.08688e-05
11.4557	0.00521545	10.2	103	-0.000279748
11.7557	0.0052063	10.5	106	0.000152597
12.0557	0.00522766	10.8	109	0.000208539
12.3557	0.00521545	11.1	112	-0.000315347
12.6557	0.00523071	11.4	115	0.000462839
12.9557	0.0052124	11.7	118	-1.5252e-05
13.2557	0.0052124	12	121	-0.000228871
13.5557	0.00522461	12.3	124	-0.000462844
13.8557	0.00523071	12.6	127	6.61254e-05
14.1557	0.00522461	12.9	130	0.00011699
14.4557	0.00522156	13.2	133	-5.59523e-05
14.7557	0.00521545	13.5	136	-0.000157676
15.0557	0.00522461	13.8	139	0.000213617
15.3557	0.00523071	14.1	142	6.61192e-05
15.6557	0.00523376	14.4	145	0.00019329
15.9557	0.00523376	14.7	148	-0.000137327
16.2557	0.00521851	15	151	-0.000325522
16.5557	0.00523987	15.3	154	2.54251e-05
16.8557	0.00523071	15.6	157	0.000244145
17.1557	0.00523682	15.9	160	-7.12058e-05
17.4557	0.00523987	16.2	163	-0.000172925
17.7557	0.00523987	16.5	166	-4.57823e-05
18.0557	0.00523987	16.8	169	-4.57823e-05
18.3557	0.00522766	17.1	172	-0.000361116
18.6557	0.00523682	17.4	175	-0.000244132
18.9557	0.00524292	17.7	178	0.000157676
19.2557	0.00524292	18	181	0.000183109
19.5557	0.00523376	18.3	184	1.52597e-05
19.8557	0.00525208	18.6	187	1.52675e-05
20.1557	0.00524292	18.9	190	-0.000167846
20.4557	0.00523071	19.2	193	0.000233959
20.7557	0.00524292	19.5	196	0.000269571
21.0557	0.00525818	19.8	199	0.000279743
21.3557	0.00525513	20.1	202	0.000218698
21.6557	0.00524597	20.4	205	-0.000122076
21.9557	0.00526123	20.7	208	0.000600178
22.2557	0.00523987	21	211	-0.000116983
22.5557	0.00524292	21.3	214	0.00037638
22.8557	0.00525818	21.6	217	5.08611e-05
23.1557	0.00524292	21.9	220	-0.000142413
23.4557	0.00525513	22.2	223	0.000269573
23.7557	0.00525208	22.5	226	-0.000330605
24.0557	0.00526123	22.8	229	7.62908e-05
24.3557	0.00525208	23.1	232	-0.000213624
24.6557	0.00523987	23.4	235	-0.000315343
24.9557	0.00524292	23.7	238	-0.000356024
25.2557	0.00526733	24	241	0.000493363
25.5557	0.00524597	24.3	244	-0.000254322
25.8557	0.00525208	24.6	247	0.00020346
26.1557	0.00525818	24.9	250	2.03432e-05
26.4557	0.00525208	25.2	253	0.000116997
26.7557	0.00525818	25.5	256	0.000295009
27.0557	0.00524597	25.8	259	-0.000223805
27.3557	0.00525208	26.1	262	-0.000483192
27.6557	0.00526123	26.4	265	3.05194e-05
27.9557	0.00525818	26.7	268	0.000172937
28.2557	0.00525818	27	271	0.000366213
28.5557	0.00524292	27.3	274	-0.000691726
28.8557	0.00524597	27.6	277	-0.000584922
29.1557	0.00524902	27.9	280	-8.13758e-05
29.4557	0.00526123	28.2	283	-0.000142424
29.7557	0.00525818	28.5	286	3.56107e-05
30.0557	0.00525818	28.8	289	-9.15505e-05
30.3557	0.00525818	29.1	292	-0.000228883
30.6557	0.00526428	29.4	295	-2.54329e-05
30.9557	0.00526428	29.7	298	0.000228876
31.2557	0.00527344	30	301	0.000259404
31.5557	0.00526428	30.3	304	-0.000396732
31.8557	0.00526733	30.6	307	0.000147509
32.1557	0.00526733	30.9	310	-0.000183107
32.4557	0.00525818	31.2	313	-0.000442512
32.7557	0.00526428	31.5	316	-0.000162772
33.0557	0.00526733	31.8	319	0.000239058
33.3557	0.00526733	32.1	322	0.00013733
33.6557	0.00527649	32.4	325	7.6297e-05
33.9557	0.00526428	32.7	328	-0.000223794
34.2557	0.00527039	33	331	-0.000208535
34.5557	0.00528564	33.3	334	0.000508628
34.8557	0.00527344	33.6	337	-0.000269573
35.1557	0.00527344	33.9	340	-0.000137328
35.4557	0.00528564	34.2	343	0.000315338
35.7557	0.00527649	34.5	346	-0.000122076
36.0557	0.00527039	34.8	349	-0.000478119
36.3557	0.00528564	35.1	352	0.000371301
36.6557	0.00528259	35.4	355	-0.000101724
36.9557	0.00527344	35.7	358	-0.000305185
37.2557	0.00529175	36	361	6.10311e-05
37.5557	0.00527649	36.3	364	0.000315355
37.8557	0.00527344	36.6	367	-0.000284826
38.1557	0.0052887	36.9	370	0.000233971
38.4557	0.00527954	37.2	373	-0.000259393
38.7557	0.00528259	37.5	376	1.01762e-05
39.0557	0.00529175	37.8	379	-6.10296e-05
39.3557	0.00528564	38.1	382	0.000162755
39.6557	0.00528259	38.4	385	-0.000376377
39.9557	0.0052887	38.7	388	-0.000208539
40.2557	0.0053009	39	391	0.000406899
40.5557	0.0052948	39.3	394	-2.03385e-05
40.8557	0.00528564	39.6	397	-0.000213627
41.1557	0.0053009	39.9	400	5.08036e-06
41.4557	0.00528259	40.2	403	-6.10373e-05
41.7557	0.00529785	40.5	406	-0.000178016
42.0557	0.00529785	40.8	409	0.000183114
42.3557	0.00530396	41.1	412	0.000111898
42.6557	0.00529785	41.4	415	2.54422e-05
42.9557	0.0053009	41.7	418	-8.13821e-05
43.2557	0.0052887	42	421	-4.0691e-05
43.5557	0.00530701	42.3	424	0.000335684
43.8557	0.00531006	42.6	427	0.000101722
44.1557	0.00529785	42.9	430	5.08502e-06
44.4557	0.0052887	43.2	433	-0.000122075
44.7557	0.00530701	43.5	436	0.000244129
45.0557	0.00529175	43.8	439	4.06895e-05
45.3557	0.00530396	44.1	442	-5.08533e-05
45.6557	0.00530396	44.4	445	-9.15568e-05
45.9557	0.00531921	44.7	448	0.000325527
46.2557	0.00530396	45	451	-5.08642e-05
46.5557	0.00530701	45.3	454	0.000239038
46.8557	0.00531006	45.6	457	0.00028482
47.1557	0.00531921	45.9	460	0.000350966
47.4557	0.00532532	46.2	463	-7.12167e-05
47.7557	0.00531311	46.5	466	0.000508632
48.0557	0.00531616	46.8	469	0.000376388
48.3557	0.0053009	47.1	472	-0.000371298
48.6557	0.00531921	47.4	475	0.000106818
48.9557	0.00530396	47.7	478	-0.000279746
49.2557	0.00531311	48	481	-6.10218e-05
49.5557	0.00530701	48.3	484	2.54282e-05
49.8557	0.00531311	48.6	487	0.000569674
50.1557	0.00531616	48.9	490	0.000101728
50.4557	0.00532532	49.2	493	0.000167844
50.7557	0.00532532	49.5	496	0.000137333
51.0557	0.00531311	49.8	499	0.000279751
51.3557	0.00531311	50.1	502	0.000366211
51.6557	0.00531616	50.4	505	0.000376382
51.9557	0.00531311	50.7	508	-1.01561e-05
52.2557	0.00532227	51	511	-1.52582e-05
52.5557	0.00531616	51.3	514	-0.000295009
52.8557	0.00533142	51.6	517	0.000600171
53.1557	0.00534363	51.9	520	0.000223805
53.4557	0.00533142	52.2	523	0.000417062
53.7557	0.00533752	52.5	526	0.000661203
54.0557	0.00534363	52.8	529	0.000203454
54.3557	0.00534058	53.1	532	8.13758e-05
54.6557	0.00532837	53.4	535	0.000233967
54.9557	0.00534363	53.7	538	0.000554407
55.2557	0.00533447	54	541	-0.000122062
55.5557	0.00533752	54.3	544	0.000147495
55.8557	0.00532227	54.6	547	-5.09433e-06
56.1557	0.00534058	54.9	550	0.000244152
56.4557	0.00534058	55.2	553	9.1549e-05
56.7557	0.00533142	55.5	556	-0.000488292
57.0557	0.00533142	55.8	559	-0.000595089
57.3557	0.00533752	56.1	562	0.000478105
57.6557	0.00533752	56.4	565	-4.57869e-05
57.9557	0.00533752	56.7	568	-0.000137336
58.2557	0.00534363	57	571	-0.00011699
58.5557	0.00534668	57.3	574	-8.13821e-05
58.8557	0.00534668	57.6	577	-0.000457762
59.1557	0.00534668	57.9	580	-0.000503546
59.4557	0.00535278	58.2	583	0.000157668
59.7557	0.00534668	58.5	586	0.000116983
60.0557	0.00534058	58.8	589	2.54329e-05
60.3557	0.00534973	59.1	592	0.000350966
60.6557	0.00534363	59.4	595	-0.00024923
60.9557	0.00534668	59.7	598	-8.13758e-05
61.1557	0.00535583	59.9	600	0.000167851