File: data/20200205/OCP_p31_1.txt
Time (s)	WE(1).Potential (V)	Corrected time (s)	Index	dWE(1).Potential/dt (V/s)	OCP value (V)
1.36674	-0.0344086	0	1	0	-0.0325977
1.66674	-0.0343933	0.3	4	-8.64764e-05
1.96674	-0.0343567	0.6	7	0.000259379
2.26674	-0.0343201	0.9	10	0.000213658
2.56674	-0.0342804	1.2	13	0.000269599
2.86674	-0.0342468	1.5	16	6.61363e-05
3.16674	-0.0342285	1.8	19	0.000335698
3.46674	-0.0342072	2.1	22	-0.000249259
3.76674	-0.0341766	2.4	25	0.000422212
4.06674	-0.0341461	2.7	28	0.000101638
4.36674	-0.0341003	3	31	0.0001526
4.66674	-0.0340912	3.3	34	0.000122103
4.96674	-0.0340607	3.6	37	5.59166e-05
5.26674	-0.0340393	3.9	40	0.000300097
5.56674	-0.0340057	4.2	43	0.000294906
5.86674	-0.0339966	4.5	46	3.04729e-05
6.16674	-0.0339874	4.8	49	-0.000106841
6.46674	-0.0339691	5.1	52	0.000473037
6.76674	-0.0339294	5.4	55	0.000498382
7.06674	-0.0339172	5.7	58	8.64019e-05
7.36674	-0.0338959	6	61	-0.000203438
7.66674	-0.0338745	6.3	64	0.000529016
7.96674	-0.0338593	6.6	67	0.000188102
8.26674	-0.0338257	6.9	70	-2.54313e-05
8.56674	-0.0338257	7.2	73	4.5759e-05
8.86674	-0.0337982	7.5	76	0.000183197
9.16674	-0.033786	7.8	79	-0.000142455
9.46674	-0.0337708	8.1	82	9.65968e-05
9.76674	-0.0337494	8.4	85	0.000254301
10.0667	-0.0337372	8.7	88	0.000406913
10.3667	-0.0337067	9	91	-3.56138e-05
10.6667	-0.0337067	9.3	94	-0.000228832
10.9667	-0.0336761	9.6	97	0.000467847
11.2667	-0.033667	9.9	100	0.000259379
11.5667	-0.0336639	10.2	103	5.59042e-05
11.8667	-0.0336487	10.5	106	-0.00045271
12.1667	-0.0336304	10.8	109	6.10823e-05
12.4667	-0.033606	11.1	112	0.000218799
12.7667	-0.0335999	11.4	115	-0.0001169
13.0667	-0.0335724	11.7	118	0.000503609
13.3667	-0.0335724	12	121	0.000320462
13.6667	-0.033548	12.3	124	0.000401822
13.9667	-0.0335419	12.6	127	-0.000162795
14.2667	-0.0335297	12.9	130	0.000178106
14.5667	-0.0335236	13.2	133	2.03401e-05
14.8667	-0.03349	13.5	136	0.000111908
15.1667	-0.033493	13.8	139	0.000127169
15.4667	-0.0334717	14.1	142	2.53816e-05
15.7667	-0.0334839	14.4	145	-0.000269537
16.0667	-0.0334473	14.7	148	-0.000106866
16.3667	-0.0334473	15	151	9.15428e-05
16.6667	-0.0334381	15.3	154	-0.000473012
16.9667	-0.0334137	15.6	157	-1.0257e-05
17.2667	-0.0334198	15.9	160	-0.00079859
17.5667	-0.0333893	16.2	163	0.000376391
17.8667	-0.0333893	16.5	166	0.000274765
18.1667	-0.0333679	16.8	169	0.000208504
18.4667	-0.0333679	17.1	172	-0.000366208
18.7667	-0.0333466	17.4	175	0.000254326
19.0667	-0.0333466	17.7	178	9.16173e-05
19.3667	-0.0333313	18	181	-0.000269587
19.6667	-0.0333252	18.3	184	-0.000116999
19.9667	-0.0333282	18.6	187	-0.000605186
20.2667	-0.0333069	18.9	190	-0.000295006
20.5667	-0.0332947	19.2	193	0.000223828
20.8667	-0.0332855	19.5	196	0.000442564
21.1667	-0.0332886	19.8	199	-5.60035e-05
21.4667	-0.0332642	20.1	202	0.000127132
21.7667	-0.0332458	20.4	205	-0.00012214
22.0667	-0.0332489	20.7	208	-0.000330595
22.3667	-0.0332458	21	211	1.00831e-05
22.6667	-0.0332336	21.3	214	-0.000325528
22.9667	-0.0332214	21.6	217	0.000315358
23.2667	-0.0332123	21.9	220	7.62815e-05
23.5667	-0.0332153	22.2	223	-5.59042e-05
23.8667	-0.0332062	22.5	226	0.000122103
24.1667	-0.033197	22.8	229	0.000305114
24.4667	-0.0331726	23.1	232	0.00040176
24.7667	-0.0331787	23.4	235	-0.000111808
25.0667	-0.0331635	23.7	238	-4.06057e-05
25.3667	-0.0331787	24	241	-0.000325416
25.6667	-0.0331482	24.3	244	0.000101849
25.9667	-0.033136	24.6	247	0.000269587
26.2667	-0.0331299	24.9	250	0.000432407
26.5667	-0.0331451	25.2	253	-9.65719e-05
26.8667	-0.0331085	25.5	256	0.00021367
27.1667	-0.0331116	25.8	259	0.000401748
27.4667	-0.0330994	26.1	262	0.000223766
27.7667	-0.0331024	26.4	265	0.000127194
28.0667	-0.0331085	26.7	268	-0.000203525
28.3667	-0.0330872	27	271	0.000345918
28.6667	-0.0330719	27.3	274	0.000508651
28.9667	-0.033078	27.6	277	2.53568e-05
29.2667	-0.0330627	27.9	280	9.65719e-05
29.5667	-0.033075	28.2	283	-0.00013231
29.8667	-0.0330597	28.5	286	-4.07547e-05
30.1667	-0.0330414	28.8	289	-0.000213608
30.4667	-0.0330414	29.1	292	-4.57217e-05
30.7667	-0.0330414	29.4	295	0.000229006
31.0667	-0.033017	29.7	298	0.000722135
31.3667	-0.033017	30	301	1.24176e-08
31.6667	-0.033017	30.3	304	-0.000549344
31.9667	-0.0330109	30.6	307	-2.53196e-05
32.2667	-0.03302	30.9	310	-0.000213558
32.5667	-0.0329987	31.2	313	-0.000157704
32.8667	-0.0330048	31.5	316	-0.000295068
33.1667	-0.0329926	31.8	319	-0.000417083
33.4667	-0.0329834	32.1	322	-6.11072e-05
33.7667	-0.0329651	32.4	325	0.000335748
34.0667	-0.032962	32.7	328	-3.56386e-05
34.3667	-0.0329712	33	331	-7.64057e-05
34.6667	-0.0329498	33.3	334	2.54437e-05
34.9667	-0.0329376	33.6	337	0.000406926
35.2667	-0.0329315	33.9	340	-0.000116949
35.5667	-0.0329559	34.2	343	-3.55765e-05
35.8667	-0.0329224	34.5	346	-7.12151e-05
36.1667	-0.0329315	34.8	349	-7.62691e-05
36.4667	-0.0329071	35.1	352	8.13479e-05
36.7667	-0.0329315	35.4	355	-0.00040181
37.0667	-0.0329071	35.7	358	3.5502e-05
37.3667	-0.0329071	36	361	-0.000274703
37.6667	-0.0328949	36.3	364	0.000406876
37.9667	-0.0328888	36.6	367	0.000249209
38.2667	-0.0328918	36.9	370	0.000172829
38.5667	-0.0328827	37.2	373	0.000396793
38.8667	-0.0328705	37.5	376	0.00054424
39.1667	-0.0328705	37.8	379	3.72529e-08
39.4667	-0.0328613	38.1	382	0.000305064
39.7667	-0.0328705	38.4	385	-0.000167762
40.0667	-0.0328613	38.7	388	-0.000289989
40.3667	-0.0328674	39	391	-2.03898e-05
40.6667	-0.0328491	39.3	394	0.00038142
40.9667	-0.0328522	39.6	397	3.56262e-05
41.2667	-0.03284	39.9	400	4.07298e-05
41.5667	-0.0328339	40.2	403	-0.000254326
41.8667	-0.0328247	40.5	406	-0.000106879
42.1667	-0.0328186	40.8	409	0.000157642
42.4667	-0.0328247	41.1	412	2.54437e-05
42.7667	-0.0328186	41.4	415	-0.000208579
43.0667	-0.0328156	41.7	418	0.000239027
43.3667	-0.0328003	42	421	0.000233923
43.6667	-0.0328064	42.3	424	-0.000295068
43.9667	-0.0327911	42.6	427	-0.000223766
44.2667	-0.0327881	42.9	430	0.000330607
44.5667	-0.032785	43.2	433	-0.000356026
44.8667	-0.0327789	43.5	436	0.000295018
45.1667	-0.032782	43.8	439	3.55517e-05
45.4667	-0.0327667	44.1	442	-0.000132198
45.7667	-0.0327637	44.4	445	5.59538e-05
46.0667	-0.0327515	44.7	448	-5.07881e-06
46.3667	-0.0327576	45	451	0.000254239
46.6667	-0.0327423	45.3	454	-4.07671e-05
46.9667	-0.0327545	45.6	457	-0.000406938
47.2667	-0.0327393	45.9	460	0.00027962
47.5667	-0.0327393	46.2	463	-9.16173e-05
47.8667	-0.0327332	46.5	466	6.61363e-05
48.1667	-0.0327423	46.8	469	-0.000625662
48.4667	-0.0327209	47.1	472	-2.02532e-05
48.7667	-0.0327179	47.4	475	0.000559414
49.0667	-0.0327271	47.7	478	0.00010673
49.3667	-0.0327148	48	481	8.64888e-05
49.6667	-0.0327118	48.3	484	-0.000310341
49.9667	-0.0327057	48.6	487	-2.54189e-05
50.2667	-0.0327026	48.9	490	-0.000493402
50.5667	-0.0326782	49.2	493	0.00031023
50.8667	-0.0327179	49.5	496	-0.000635758
51.1667	-0.0326904	49.8	499	-0.000549219
51.4667	-0.0326965	50.1	502	-0.000249321
51.7667	-0.0326843	50.4	505	-0.000142393
52.0667	-0.0326782	50.7	508	-2.53816e-05
52.3667	-0.0326691	51	511	0.000167862
52.6667	-0.0326691	51.3	514	-0.000183135
52.9667	-0.0326599	51.6	517	0.000213633
53.2667	-0.0326599	51.9	520	4.57217e-05
53.5667	-0.0326447	52.2	523	0.000371362
53.8667	-0.0326508	52.5	526	0.000208542
54.1667	-0.0326508	52.8	529	-0.000228969
54.4667	-0.0326508	53.1	532	0.000183148
54.7667	-0.0326385	53.4	535	-0.000188189
55.0667	-0.0326477	53.7	538	-0.000167837
55.3667	-0.0326294	54	541	-7.62194e-05
55.6667	-0.0326385	54.3	544	-0.000717168
55.9667	-0.0326263	54.6	547	-9.67085e-05
56.2667	-0.0326141	54.9	550	0.000315395
56.5667	-0.0326172	55.2	553	0.000264471
56.8667	-0.0326202	55.5	556	0.000172928
57.1667	-0.0326111	55.8	559	0.000351034
57.4667	-0.0326141	56.1	562	0.000218836
57.7667	-0.032608	56.4	565	2.03401e-05
58.0667	-0.0326141	56.7	568	-0.000111808
58.3667	-0.0325897	57	571	0.000356063
58.6667	-0.032605	57.3	574	4.07422e-05
58.9667	-0.032608	57.6	577	-0.000376391
59.2667	-0.0325928	57.9	580	0.000325491
59.5667	-0.0325897	58.2	583	-0.000264496
59.8667	-0.0325897	58.5	586	-0.000137327
60.1667	-0.0325684	58.8	589	-0.000111796
60.4667	-0.0325714	59.1	592	-0.000147546
60.7667	-0.0325806	59.4	595	0.000152662
61.0667	-0.0325775	59.7	598	-0.000539136
61.2667	-0.0325775	59.9	600	-5.08626e-05