File: data/20200205/Z_p28_1.txt
Index	Frequency (Hz)	Z' (Ω)	-Z'' (Ω)	Z (Ω)	-Phase (°)	Time (s)
1	1000000	2377.76	3199.18	3986.04	53.3787	73.1591
2	794330	3051.27	3339.13	4523.28	47.5792	74.4892
3	630960	3811.63	3477.79	5159.81	42.3778	75.8792
4	501190	4637.06	3552.86	5841.67	37.4589	77.3892
5	398110	5457.58	3501.29	6484.16	32.682	82.3243
6	316230	6152.91	3383.39	7021.79	28.8057	83.6443
7	251190	6608.11	3129.3	7311.61	25.3401	88.7944
8	199530	7146.9	2922.7	7721.42	22.2419	90.1144
9	158490	7609.23	2708.24	8076.82	19.5914	91.5445
10	125890	8034.18	2494.12	8412.41	17.2464	93.0045
11	100000	8395.5	2277.11	8698.83	15.1752	94.6245
12	79433	8705.95	2060.56	8946.48	13.316	96.0996
13	63096	9009.41	1841.88	9195.76	11.5543	97.5396
14	50119	9199.68	1674.51	9350.83	10.316	99.0996
15	39811	9402.46	1498.58	9521.14	9.05575	100.585
16	31623	9570.23	1357.41	9666.01	8.07281	102.025
17	25119	9724.55	1233.62	9802.49	7.22973	103.475
18	19953	9874.14	1118.31	9937.26	6.46161	104.81
19	15849	9992.16	1032.23	10045.3	5.89794	106.14
20	12589	10101.2	959.587	10146.7	5.42665	107.465
21	10000	10198.7	905.223	10238.8	5.07219	111.285
22	7943.3	10309.6	847.748	10344.4	4.70082	112.515
23	6309.6	10403.8	825.28	10436.5	4.53546	113.86
24	5011.9	10508.1	793.613	10538.1	4.31898	115.17
25	3981.1	10602.8	775.208	10631.1	4.18166	116.48
26	3162.3	10706.6	770.811	10734.3	4.11785	117.765
27	2511.9	10811.3	761.365	10838.1	4.02829	119.095
28	1995.3	10907.9	766.367	10934.8	4.01888	120.415
29	1584.9	11004.7	770.903	11031.6	4.00716	121.665
30	1258.9	11108.7	779.659	11136	4.0147	122.97
31	1000	11222	786.23	11249.5	4.00769	124.285
32	794.33	11332	795.526	11359.9	4.01568	125.73
33	630.96	11447.9	804.542	11476.1	4.02007	127.04
34	501.19	11561.1	815.895	11589.9	4.0368	128.375
35	398.11	11691	823.65	11719.9	4.02993	129.57
36	316.23	11805.9	838.689	11835.7	4.06345	130.885
37	251.19	11941.3	850.806	11971.6	4.07538	132.23
38	199.53	12061.1	864.411	12092	4.09934	133.45
39	158.49	12191.8	878.586	12223.4	4.12182	134.8
40	125.89	12328.7	888.922	12360.7	4.124	136.215
41	100	12463.3	898.404	12495.7	4.12296	137.505
42	79.433	12606	910.246	12638.9	4.13	138.915
43	63.096	12750.7	912.51	12783.4	4.09341	140.385
44	50.119	12902.7	998.655	12941.3	4.42582	141.865
45	39.811	13015.4	938.625	13049.2	4.12485	150.986
46	31.623	13164.1	951.471	13198.4	4.13402	152.621
47	25.119	13299.9	955.705	13334.2	4.1101	154.211
48	19.953	13447.3	959.227	13481.5	4.08012	156.116
49	15.849	13584.7	952.95	13618.1	4.01266	158.076
50	12.589	13730.4	949.362	13763.2	3.9553	160.081
51	10	13877.8	965.152	13911.4	3.9783	162.381
52	7.9433	13990.7	963.735	14023.9	3.94053	164.701
53	6.3096	14131.5	984.492	14165.7	3.98516	167.026
54	5.0119	14241.3	992.337	14275.9	3.98593	169.411
55	3.9811	14372	993.163	14406.3	3.95309	171.811
56	3.1623	14440.1	1016.79	14475.8	4.0278	174.316
57	2.5119	14600.8	1163.3	14647.1	4.55533	176.861
58	1.9953	14798.9	824.814	14821.8	3.19007	179.476
59	1.5849	14825.6	1297.65	14882.3	5.00221	182.176
60	1.2589	14919.7	1501.77	14995.1	5.74785	185.051
61	1	15009.6	1583.61	15092.9	6.0228	191.811
62	0.79433	15134	1806.05	15241.3	6.80535	195.041
63	0.63096	15239.5	2062.59	15378.4	7.70789	198.521
64	0.50119	15368.2	2450.97	15562.4	9.0614	202.322
65	0.39811	15490.3	2890.95	15757.7	10.5715	206.542
66	0.31623	15702	3479.18	16082.8	12.4935	211.322
67	0.25119	15868.2	4096.21	16388.3	14.4743	216.707
68	0.19953	16126.3	4878.64	16848.1	16.832	222.967
69	0.15849	16336.9	5922.89	17377.4	19.928	230.222
70	0.12589	16792.5	7257.2	18293.6	23.3725	238.762
71	0.1	17136.2	8497.53	19127.4	26.376	248.937