File: data/20200205/Z_p29_1.txt
Index	Frequency (Hz)	Z' (Ω)	-Z'' (Ω)	Z (Ω)	-Phase (°)	Time (s)
1	1000000	2240.68	2877.07	3646.66	52.0883	73.2382
2	794330	2807.24	3036.15	4135.07	47.2434	75.4432
3	630960	3415.38	3159.4	4652.6	42.7704	76.8782
4	501190	4134.14	3264.47	5267.63	38.2959	78.3682
5	398110	4894.61	3278.81	5891.33	33.8174	83.4183
6	316230	5554.69	3280.75	6451.19	30.5673	84.7434
7	251190	6006.48	3026.56	6725.91	26.7427	88.8034
8	199530	6538.67	2914.34	7158.75	24.0229	90.1485
9	158490	7034.82	2767.04	7559.44	21.4715	91.5535
10	125890	7476.19	2584.33	7910.26	19.069	92.9385
11	100000	7878.01	2392.94	8233.42	16.8961	94.4485
12	79433	8231.89	2193.62	8519.15	14.9214	96.3136
13	63096	8536.25	1980.41	8762.96	13.0615	97.7336
14	50119	8806.71	1798.22	8988.42	11.5404	99.0386
15	39811	9023.52	1609.18	9165.88	10.1114	100.394
16	31623	9221.75	1440.98	9333.65	8.88115	101.704
17	25119	9392.79	1302.73	9482.7	7.89623	103.034
18	19953	9546.56	1158.8	9616.63	6.92094	104.344
19	15849	9657.48	1056.57	9715.11	6.24356	105.669
20	12589	9778.06	969.161	9825.97	5.66043	106.994
21	10000	9887.02	894.467	9927.4	5.1694	110.834
22	7943.3	9989.75	841.198	10025.1	4.8133	112.069
23	6309.6	10075.6	788.929	10106.5	4.47716	113.404
24	5011.9	10178.4	748.988	10205.9	4.20859	114.759
25	3981.1	10265.1	722.875	10290.5	4.02814	116.199
26	3162.3	10346	716.929	10370.8	3.964	117.514
27	2511.9	10441.2	695.652	10464.3	3.81174	118.849
28	1995.3	10522.7	685.421	10545	3.72683	120.164
29	1584.9	10615.8	677.833	10637.4	3.65346	121.439
30	1258.9	10706.3	683.351	10728.1	3.65207	122.749
31	1000	10800.2	684.117	10821.8	3.62445	124.149
32	794.33	10891.9	680.349	10913.1	3.57427	125.614
33	630.96	10991.8	690.585	11013.4	3.59503	126.924
34	501.19	11087.9	693.796	11109.6	3.58045	128.284
35	398.11	11190.7	699.252	11212.5	3.57549	129.584
36	316.23	11291	709.596	11313.2	3.5961	131.064
37	251.19	11401.6	722.687	11424.5	3.62682	132.424
38	199.53	11512.3	729.933	11535.4	3.62796	133.679
39	158.49	11612.1	739.368	11635.6	3.64324	135.044
40	125.89	11724.6	750.241	11748.5	3.6613	136.484
41	100	11836.9	765.534	11861.6	3.70038	137.779
42	79.433	11949.7	774.75	11974.8	3.70953	139.184
43	63.096	12064.9	791.911	12090.8	3.75538	140.699
44	50.119	12338.4	789.019	12363.6	3.65898	142.174
45	39.811	12302.3	817.228	12329.5	3.8005	151.325
46	31.623	12421.4	835.733	12449.4	3.84917	152.99
47	25.119	12535.6	835.939	12563.4	3.81514	154.57
48	19.953	12670.7	854.598	12699.5	3.85856	156.49
49	15.849	12793	889.931	12823.9	3.9793	158.475
50	12.589	12925.5	890.182	12956.2	3.93974	160.455
51	10	13044.3	911.033	13076.1	3.99513	162.78
52	7.9433	13164.2	940.037	13197.7	4.08449	165.12
53	6.3096	13285.2	966.453	13320.3	4.16076	167.455
54	5.0119	13400.6	1025.76	13439.8	4.37721	169.935
55	3.9811	13555.9	1064.94	13597.7	4.49187	172.425
56	3.1623	13644.3	1151.97	13692.8	4.82597	175.045
57	2.5119	13883.2	1281.29	13942.2	5.27293	177.6
58	1.9953	13922.8	1124.19	13968.1	4.61634	180.22
59	1.5849	14096.3	1408.45	14166.5	5.70584	182.935
60	1.2589	14190.3	1594.04	14279.6	6.40932	185.89
61	1	14300.9	1768.5	14409.8	7.04963	190.98
62	0.79433	14460.3	2018.36	14600.5	7.94595	196.52
63	0.63096	14601.5	2286.78	14779.5	8.90093	199.96
64	0.50119	14766.1	2694.83	15010	10.3428	203.761
65	0.39811	14907.6	3167.54	15240.4	11.9957	208.001
66	0.31623	15143.2	3759.7	15603	13.9432	212.886
67	0.25119	15369	4407.26	15988.4	16.001	218.436
68	0.19953	15683.7	5250.9	16539.4	18.5105	224.756
69	0.15849	15960.3	6289.46	17154.8	21.5079	232.036
70	0.12589	16311.1	7709.4	18041.2	25.2977	240.561
71	0.1	16972.1	9128.06	19271	28.2726	250.786