File: data/20200205/Z_p27_1.txt
Index	Frequency (Hz)	Z' (Ω)	-Z'' (Ω)	Z (Ω)	-Phase (°)	Time (s)
1	1000000	2321.41	3230.8	3978.32	54.3018	132.896
2	794330	2949.23	3387.16	4491.19	48.9536	134.291
3	630960	3730.03	3569.65	5162.9	43.7414	135.696
4	501190	4506.11	3683.37	5819.98	39.2631	137.196
5	398110	5457.65	3754.95	6624.62	34.5286	142.226
6	316230	6071.82	3637.31	7077.92	30.9236	143.556
7	251190	6641.28	3350.59	7438.62	26.7714	148.477
8	199530	7247.45	3191.64	7919.1	23.7678	149.787
9	158490	7768.87	3005.85	8330.09	21.1519	151.182
10	125890	8238.97	2793.57	8699.69	18.7302	152.482
11	100000	8654.06	2576.75	9029.53	16.5809	153.902
12	79433	9021.97	2361.67	9325.96	14.6691	155.202
13	63096	9358.79	2146.19	9601.72	12.916	156.517
14	50119	9631.36	1959.87	9828.75	11.502	157.822
15	39811	9877.91	1761.8	10033.8	10.1128	159.127
16	31623	10086.8	1596.24	10212.3	8.99253	160.467
17	25119	10253.9	1440.57	10354.6	7.99716	161.762
18	19953	10415	1333.46	10500	7.29601	163.067
19	15849	10585.6	1219.5	10655.6	6.57171	164.392
20	12589	10736.2	1133.7	10795.9	6.02788	165.712
21	10000	10844.3	1077.76	10897.7	5.67571	167.942
22	7943.3	10969.4	1016.37	11016.4	5.29365	169.162
23	6309.6	11089.2	969.127	11131.5	4.99461	170.482
24	5011.9	11208.7	930.559	11247.3	4.74586	171.827
25	3981.1	11322.6	905.279	11358.7	4.57126	173.137
26	3162.3	11441.8	883.872	11475.9	4.41729	174.432
27	2511.9	11553.7	872.133	11586.6	4.3168	175.767
28	1995.3	11670.5	866.729	11702.7	4.24735	177.087
29	1584.9	11787.1	861.468	11818.5	4.18008	178.297
30	1258.9	11899.1	858.705	11930.1	4.12761	179.597
31	1000	12027	866.006	12058.1	4.11849	180.922
32	794.33	12143.7	871.086	12174.9	4.10287	182.342
33	630.96	12267.5	878.674	12298.9	4.09689	183.662
34	501.19	12395.5	886.883	12427.2	4.09248	184.997
35	398.11	12524.3	896.073	12556.3	4.09235	186.282
36	316.23	12659.6	908.797	12692.2	4.10606	187.602
37	251.19	12792.6	919.636	12825.6	4.11182	188.957
38	199.53	12927.9	932.325	12961.4	4.12489	190.182
39	158.49	13070.2	947.946	13104.5	4.14824	191.547
40	125.89	13211.5	962.152	13246.5	4.16532	192.962
41	100	13349.5	977.727	13385.2	4.18892	194.322
42	79.433	13492.6	991.769	13529	4.20396	195.732
43	63.096	13649.1	1001.46	13685.8	4.19641	197.212
44	50.119	13664.6	1082.28	13707.4	4.52858	207.148
45	39.811	13967.7	1043.8	14006.6	4.27373	216.243
46	31.623	14115.7	1053.19	14154.9	4.26701	218.548
47	25.119	14273.9	1080.47	14314.7	4.32881	220.133
48	19.953	14429.9	1103.62	14472	4.37354	222.098
49	15.849	14586.5	1117.49	14629.2	4.38096	224.073
50	12.589	14761.1	1135.44	14804.7	4.39857	226.058
51	10	14894.4	1150.03	14938.7	4.41518	228.348
52	7.9433	15070.4	1174.26	15116.1	4.45539	230.648
53	6.3096	15228.5	1236.9	15278.7	4.64353	233.063
54	5.0119	15403.2	1267.93	15455.3	4.70577	235.463
55	3.9811	15544	1306.58	15598.8	4.80482	237.933
56	3.1623	15690.6	1405.01	15753.4	5.11687	240.488
57	2.5119	16008	1527.07	16080.7	5.44918	243.198
58	1.9953	16016.4	1375.35	16075.3	4.90801	245.818
59	1.5849	16188	1725.99	16279.8	6.08596	248.538
60	1.2589	16546.2	1915.17	16656.7	6.60241	251.438
61	1	16475.7	2032.47	16600.6	7.03257	256.554
62	0.79433	16677.4	2288.68	16833.7	7.81403	261.829
63	0.63096	16854.4	2597.57	17053.4	8.76138	265.254
64	0.50119	17045	2968.07	17301.4	9.87796	269.114
65	0.39811	17253.9	3476.5	17600.6	11.3921	273.349
66	0.31623	17417	4064.41	17884.9	13.1354	278.114
67	0.25119	17703.1	4928.58	18376.3	15.5573	283.569
68	0.19953	17968.7	5870.73	18903.4	18.0932	289.809
69	0.15849	18333.6	7049.35	19642.2	21.0319	297.184
70	0.12589	18709.2	8288.71	20463	23.8948	305.784
71	0.1	18936.8	10222.5	21519.8	28.3611	315.94