File: data/20200205/Z_p32_1.txt
Index	Frequency (Hz)	Z' (Ω)	-Z'' (Ω)	Z (Ω)	-Phase (°)	Time (s)
1	1000000	2129.68	2823.26	3536.43	52.9715	56.0548
2	794330	2650.29	3022.97	4020.25	48.7584	57.4498
3	630960	3317.67	3171.54	4589.73	43.71	58.9899
4	501190	4057.4	3260.33	5205.02	38.7837	60.5399
5	398110	4719.21	3374.06	5801.31	35.5634	65.8
6	316230	5385.7	3283.32	6307.61	31.368	67.135
7	251190	5848.42	3120.79	6628.98	28.0849	71.3201
8	199530	6408.65	3030.49	7089.05	25.3083	72.6651
9	158490	6933.12	2897.31	7514.16	22.6797	74.1052
10	125890	7403.28	2738.04	7893.38	20.2965	75.4052
11	100000	7835.97	2563.62	8244.67	18.1161	76.7802
12	79433	8224.78	2379.42	8562.04	16.1351	78.1252
13	63096	8577.68	2172.57	8848.54	14.2131	79.5853
14	50119	8867.38	1995.58	9089.16	12.683	80.9603
15	39811	9139.37	1817.83	9318.4	11.2494	82.3053
16	31623	9356.73	1652.85	9501.6	10.0179	83.6353
17	25119	9556.53	1494.8	9672.73	8.89	84.9904
18	19953	9739.22	1354.01	9832.89	7.9149	86.3404
19	15849	9884.7	1244.37	9962.72	7.17512	87.6804
20	12589	10040.3	1161.77	10107.3	6.60042	89.0304
21	10000	10169.7	1079.11	10226.8	6.05704	92.9755
22	7943.3	10287	1014.93	10337	5.63465	94.2655
23	6309.6	10398.4	960.788	10442.7	5.27899	95.6306
24	5011.9	10499.3	925.366	10540	5.03683	97.0506
25	3981.1	10615.5	905.374	10654	4.87484	98.3906
26	3162.3	10731.5	887.052	10768.1	4.72525	99.8456
27	2511.9	10835.2	883.841	10871.2	4.66337	101.696
28	1995.3	10946.4	895.897	10983	4.67887	103.126
29	1584.9	11057	897.345	11093.4	4.63974	104.846
30	1258.9	11177.3	914.614	11214.6	4.67798	106.766
31	1000	11294.8	929.805	11333	4.70608	108.701
32	794.33	11421.1	958.777	11461.2	4.79862	110.161
33	630.96	11545.6	993.891	11588.3	4.92012	111.536
34	501.19	11683.1	1030.85	11728.5	5.04238	112.911
35	398.11	11821.7	1075.29	11870.5	5.1973	114.176
36	316.23	11979.3	1125.52	12032	5.36751	115.526
37	251.19	12134.9	1182.42	12192.4	5.56528	117.826
38	199.53	12290.5	1245.74	12353.5	5.78761	119.246
39	158.49	12466.6	1315.6	12535.8	6.02412	120.681
40	125.89	12647.4	1396.43	12724.3	6.30063	122.186
41	100	12796.1	1475.08	12880.8	6.57581	123.711
42	79.433	13045.2	1575.28	13139.9	6.88546	125.171
43	63.096	13253.7	1678.2	13359.5	7.21647	126.716
44	50.119	13289.6	1911.89	13426.4	8.18663	128.316
45	39.811	13720.1	1922.89	13854.2	7.97809	137.501
46	31.623	13961	2074.32	14114.3	8.45115	139.276
47	25.119	14246.8	2230.91	14420.4	8.89972	141.001
48	19.953	14525.2	2409.15	14723.7	9.41733	143.011
49	15.849	14848.1	2618.13	15077.2	10	145.026
50	12.589	15167.1	2848.91	15432.3	10.6382	147.117
51	10	15549.6	3110.89	15857.8	11.3133	149.452
52	7.9433	15917.7	3380.73	16272.7	11.9908	151.832
53	6.3096	16354.9	3768.25	16783.4	12.9748	154.277
54	5.0119	16772.2	4146.35	17277.2	13.886	156.657
55	3.9811	17270.9	4551.99	17860.7	14.7653	159.137
56	3.1623	17754.6	5065.52	18463.1	15.9238	161.607
57	2.5119	18675.6	5505.68	19470.3	16.4258	164.137
58	1.9953	18660.3	7337.92	20051.3	21.4665	166.772
59	1.5849	19666.1	7048.05	20891	19.7169	169.622
60	1.2589	20412.9	8015.51	21930.2	21.4384	172.577
61	1	21442.7	8966.43	23241.9	22.6926	179.317
62	0.79433	22444.3	10118.2	24619.6	24.2664	182.467
63	0.63096	23561.7	11432.6	26188.9	25.8836	185.992
64	0.50119	24776.5	12959	27960.8	27.6112	189.927
65	0.39811	26167.3	14791.2	30058.4	29.4775	194.242
66	0.31623	27681.6	16827.9	32395.2	31.2957	199.007
67	0.25119	29526.8	19428.4	35345.4	33.3446	204.523
68	0.19953	31476.4	22251.1	38547.1	35.2571	210.753
69	0.15849	33874	25529.6	42417.1	37.004	218.048
70	0.12589	36426.9	29027.5	46578	38.5502	226.593
71	0.1	39131	33813.6	51716.5	40.8307	236.778