File: data/20200205/Z_p31_1.txt
Index	Frequency (Hz)	Z' (Ω)	-Z'' (Ω)	Z (Ω)	-Phase (°)	Time (s)
1	1000000	2239.71	3032.87	3770.23	53.5549	70.2251
2	794330	2813.65	3190.14	4253.66	48.5883	71.6201
3	630960	3562.24	3427.63	4943.5	43.8967	73.0351
4	501190	4363.11	3479.29	5580.52	38.57	74.4902
5	398110	5121.95	3497.28	6202.04	34.3253	80.3253
6	316230	5774.98	3386.59	6694.73	30.3884	81.7353
7	251190	6311.45	3178.89	7066.81	26.733	86.7204
8	199530	6886.84	3029.56	7523.75	23.745	88.0654
9	158490	7384.32	2824.53	7906.08	20.932	89.4754
10	125890	7828.38	2607.16	8251.11	18.4198	90.8705
11	100000	8215.86	2381.38	8554.02	16.1643	92.3305
12	79433	8537.95	2166.11	8808.44	14.2358	93.7555
13	63096	8864.45	1949.1	9076.2	12.4008	95.1056
14	50119	9078.56	1761.17	9247.81	10.9786	96.4656
15	39811	9290.74	1580.57	9424.23	9.65491	97.8056
16	31623	9466	1415.11	9571.19	8.50243	99.1556
17	25119	9602.2	1296.82	9689.37	7.69149	100.526
18	19953	9774.07	1181.86	9845.27	6.8946	101.851
19	15849	9880.1	1088.46	9939.88	6.28675	103.191
20	12589	10013.2	1032.06	10066.2	5.88471	104.586
21	10000	10121	967.966	10167.2	5.4631	109.236
22	7943.3	10238	922.754	10279.5	5.15017	110.476
23	6309.6	10339.4	895.771	10378.1	4.95155	111.801
24	5011.9	10453	877.989	10489.8	4.80124	113.161
25	3981.1	10562	870.847	10597.9	4.71342	114.541
26	3162.3	10660.6	869.454	10696	4.66261	115.856
27	2511.9	10768.5	881.757	10804.6	4.6811	117.211
28	1995.3	10891.2	896.54	10928.1	4.70584	118.521
29	1584.9	10998.6	916.584	11036.8	4.7638	119.846
30	1258.9	11123.6	946.811	11163.8	4.86515	121.186
31	1000	11252.3	974.598	11294.4	4.95021	122.581
32	794.33	11382.6	1008.95	11427.2	5.06546	124.031
33	630.96	11524	1050	11571.8	5.20608	125.336
34	501.19	11663	1095.62	11714.3	5.36662	126.721
35	398.11	11817.8	1149.11	11873.6	5.55371	128.031
36	316.23	11972.9	1205.48	12033.4	5.74942	129.391
37	251.19	12149.7	1269.57	12215.8	5.96544	130.771
38	199.53	12320.4	1337.34	12392.7	6.19502	132.026
39	158.49	12513.7	1417.27	12593.7	6.46163	133.416
40	125.89	12707.6	1498.56	12795.6	6.72562	134.841
41	100	12930.8	1588.14	13027.9	7.00191	136.146
42	79.433	13155.3	1690.78	13263.5	7.3238	137.646
43	63.096	13388.6	1773.37	13505.5	7.54513	139.131
44	50.119	13573.3	1821.46	13694.9	7.64313	140.546
45	39.811	13907.4	2018.81	14053.2	8.2594	149.782
46	31.623	14192.3	2142.36	14353.1	8.58412	151.462
47	25.119	14473.3	2280.19	14651.8	8.95305	153.082
48	19.953	14796.5	2424.45	14993.8	9.30541	154.942
49	15.849	15124.7	2599.07	15346.4	9.75064	156.942
50	12.589	15508.6	2772.51	15754.5	10.1358	159.037
51	10	15839.4	2962.97	16114.1	10.5955	161.332
52	7.9433	16250.5	3198.84	16562.3	11.1361	163.697
53	6.3096	16649.3	3421.4	16997.2	11.6125	166.142
54	5.0119	17051.4	3689.33	17445.9	12.2086	168.642
55	3.9811	17521.2	4023.74	17977.3	12.9337	171.052
56	3.1623	18019.5	4398.57	18548.6	13.7177	173.717
57	2.5119	18785.7	4677.25	19359.3	13.9812	176.287
58	1.9953	18901.1	5108.76	19579.3	15.125	179.007
59	1.5849	19796.7	5896.35	20656.1	16.5859	181.792
60	1.2589	20363.7	6634.87	21417.4	18.0465	184.772
61	1	20918.2	7435.71	22200.5	19.5685	191.572
62	0.79433	21688.4	8391.71	23255.3	21.1525	194.822
63	0.63096	22513.1	9555.11	24456.9	22.9975	198.392
64	0.50119	23374.8	10919	25799.3	25.0386	202.688
65	0.39811	24392.4	12511.9	27414.2	27.1553	207.003
66	0.31623	25543.6	14554.8	29399.3	29.6747	211.778
67	0.25119	27002.6	16732.6	31766.6	31.7851	217.268
68	0.19953	28623.6	19442.6	34602.4	34.1863	223.503
69	0.15849	30399.1	22567	37860	36.5886	230.863
70	0.12589	32262.4	26453.6	41721.2	39.3501	239.453
71	0.1	35110.9	30965.1	46814.6	41.4098	249.633