File: data/20200205/Z_p30_1.txt
Index	Frequency (Hz)	Z' (Ω)	-Z'' (Ω)	Z (Ω)	-Phase (°)	Time (s)
1	1000000	2411.22	2661.63	3591.41	47.826	70.1321
2	794330	2923.07	2677.03	3963.69	42.4844	71.6121
3	630960	3554.85	2690.31	4458.11	37.1184	73.0821
4	501190	4132.49	2637.14	4902.25	32.5439	74.7422
5	398110	4709.61	2566.13	5363.34	28.5847	80.9173
6	316230	5190.32	2413.45	5724	24.938	82.2923
7	251190	5483.61	2175.05	5899.22	21.6356	86.5874
8	199530	5841.77	2023.69	6182.36	19.107	87.9824
9	158490	6147.2	1868.02	6424.76	16.903	89.3424
10	125890	6427.09	1720.94	6653.5	14.9901	90.6625
11	100000	6664.99	1566.83	6846.68	13.2291	92.0725
12	79433	6877.24	1431.8	7024.7	11.7606	93.4025
13	63096	7071.03	1285.89	7187	10.3068	94.8325
14	50119	7218.54	1176.36	7313.77	9.2558	96.1976
15	39811	7361.29	1065.52	7438.01	8.23618	97.5376
16	31623	7489	969.099	7551.44	7.37327	98.8476
17	25119	7591.57	897.76	7644.47	6.74433	100.178
18	19953	7707.37	816.151	7750.46	6.04465	101.498
19	15849	7798.91	775.419	7837.36	5.67806	102.823
20	12589	7888.82	715.634	7921.22	5.18339	104.133
21	10000	7968.63	682.404	7997.79	4.89466	105.528
22	7943.3	8052.2	655.289	8078.81	4.65249	106.863
23	6309.6	8137.8	631.613	8162.28	4.4381	108.178
24	5011.9	8214.85	616.439	8237.95	4.29141	109.493
25	3981.1	8289.02	606.379	8311.17	4.18399	110.828
26	3162.3	8364.57	600.754	8386.11	4.10801	112.188
27	2511.9	8444.41	598.309	8465.58	4.05278	113.533
28	1995.3	8520.96	594.612	8541.68	3.99176	114.853
29	1584.9	8608.82	602.277	8629.86	4.00192	116.038
30	1258.9	8691.78	608.725	8713.07	4.00614	117.348
31	1000	8772.51	613.312	8793.92	3.99921	118.668
32	794.33	8860.03	622.591	8881.88	4.01954	120.098
33	630.96	8949.91	630.417	8972.09	4.02917	121.433
34	501.19	9042.11	639.945	9064.73	4.04829	122.858
35	398.11	9137.75	649.48	9160.8	4.06555	125.683
36	316.23	9238.56	660.942	9262.18	4.09206	126.958
37	251.19	9330.84	669.118	9354.8	4.10168	128.298
38	199.53	9435.75	680.272	9460.24	4.12361	129.628
39	158.49	9543.1	692.408	9568.19	4.14987	131.013
40	125.89	9644	699.671	9669.34	4.14953	132.438
41	100	9713.16	710.227	9739.1	4.18202	133.828
42	79.433	9858.75	719.732	9884.99	4.17544	135.273
43	63.096	9960.61	731.905	9987.47	4.20254	136.758
44	50.119	10128.7	810.702	10161.1	4.5762	138.153
45	39.811	10181	737.978	10207.7	4.14588	147.359
46	31.623	10297.8	750.75	10325.1	4.1697	149.029
47	25.119	10412.8	748.268	10439.6	4.11024	150.614
48	19.953	10520.8	755.744	10547.9	4.10871	152.549
49	15.849	10636.7	753.462	10663.4	4.05183	154.514
50	12.589	10735	761.879	10762	4.05957	156.499
51	10	10846.7	760.794	10873.3	4.0122	158.799
52	7.9433	10947.6	771.317	10974.8	4.03012	161.134
53	6.3096	11059.3	777.616	11086.6	4.02205	163.469
54	5.0119	11169.5	795.696	11197.8	4.07478	165.854
55	3.9811	11261.6	807.675	11290.5	4.10219	168.349
56	3.1623	11329.4	877.498	11363.3	4.42891	170.894
57	2.5119	11333	1032.71	11380	5.20663	173.529
58	1.9953	11733.6	1181.5	11793	5.74995	176.229
59	1.5849	11560.1	1018.52	11604.9	5.03511	178.939
60	1.2589	11642.2	1095.47	11693.7	5.3754	181.899
61	1	11804	1263.2	11871.4	6.10822	188.669
62	0.79433	11910.4	1434.32	11996.4	6.86686	191.874
63	0.63096	11977.1	1634.94	12088.2	7.77317	195.384
64	0.50119	12089.5	1918.95	12240.9	9.01923	199.209
65	0.39811	12183.4	2269.27	12392.9	10.551	203.45
66	0.31623	12328.3	2708.92	12622.4	12.3928	208.195
67	0.25119	12426.9	3235.67	12841.2	14.5945	213.62
68	0.19953	12594.5	3850.45	13169.9	16.9997	219.915
69	0.15849	12762.6	4685.12	13595.4	20.1581	227.27
70	0.12589	13081.1	5711.21	14273.5	23.5861	235.885
71	0.1	13302	6717.38	14901.9	26.7934	246.065