File: data/20210121/Z_p19_1.txt
Index	Frequency (Hz)	Z' (Ω)	-Z'' (Ω)	Z (Ω)	-Phase (°)	Time (s)
1	1000000	3257.99	10087.2	10600.3	72.1004	58.9909
2	794330	6051.87	11033	12583.8	61.2542	62.3559
3	630960	8879.69	12566.6	15387.2	54.7545	65.951
4	501190	12073.2	14035.3	18513.6	49.2979	74.2562
5	398110	16249.8	17833.3	24126.4	47.66	89.8665
6	316230	19731.7	19368.9	27649.4	44.4684	92.4765
7	251190	23262.1	19305.2	30229.4	39.6894	99.0166
8	199530	27082.9	19675	33475.2	35.9974	101.927
9	158490	30823	19572.4	36512.1	32.4154	104.327
10	125890	34461.5	19060.1	39381.3	28.9463	106.947
11	100000	37764.9	18197.4	41920.6	25.7275	109.637
12	79433	40905.6	17150.2	44355.3	22.7465	116.602
13	63096	43594.6	15873.1	46394.4	20.0069	128.302
14	50119	46015.6	14570.2	48267.2	17.5696	132.547
15	39811	48108.8	13218.5	49891.7	15.3637	136.332
16	31623	49845.5	11748.5	51211.4	13.2625	139.317
17	25119	51079.4	10678.3	52183.7	11.8078	142.107
18	19953	52407.5	9779.65	53312.2	10.5703	144.247
19	15849	53549.3	8767.44	54262.3	9.29835	146.583
20	12589	54540.5	8105.36	55139.5	8.45297	148.743
21	10000	55574	7356.05	56058.8	7.54012	152.473
22	7943.3	56417.8	6838.52	56830.7	6.91122	155.798
23	6309.6	57210.8	6396.51	57567.3	6.37951	160.463
24	5011.9	57952.6	6036.05	58266.1	5.9462	169.728
25	3981.1	58669.3	5750.22	58950.4	5.59772	176.963
26	3162.3	59352.6	5525.93	59609.3	5.3191	182.668
27	2511.9	60046.5	5354.61	60284.8	5.09583	187.718
28	1995.3	60721	5218.62	60944.8	4.91217	193.078
29	1584.9	61397.3	5129.98	61611.3	4.77619	198.458
30	1258.9	62108.1	5071.3	62314.8	4.668	203.399
31	1000	62775.9	5020.52	62976.4	4.57251	207.944
32	794.33	63460.4	4996.11	63656.7	4.5015	212.554
33	630.96	64149.1	4982.7	64342.4	4.44145	216.804
34	501.19	64889.5	4979.98	65080.3	4.38859	220.839
35	398.11	65612.4	4989.52	65801.9	4.34871	226.904
36	316.23	66330.3	4989.4	66517.7	4.30171	233.449
37	251.19	67070.7	4992.42	67256.2	4.25697	246.459
38	199.53	67813.7	5000.12	67997.8	4.21697	253.454
39	158.49	68531.8	4994.03	68713.6	4.16787	259.45
40	125.89	69266.6	4978.86	69445.3	4.11133	268.15
41	100	69988.2	4952.67	70163.2	4.04775	271.34
42	79.433	70711	4929.05	70882.5	3.98747	274.975
43	63.096	71451.9	4956.7	71623.7	3.96831	290.025
44	50.119	72139.1	4903.35	72305.6	3.88846	298.855
45	39.811	72925.7	4797.11	73083.3	3.76354	317.946
46	31.623	73575.8	4754.83	73729.3	3.69759	332.651
47	25.119	74286.5	4664.17	74432.8	3.59267	343.721
48	19.953	74989.7	4629.52	75132.4	3.5327	346.066
49	15.849	75659.7	4546.05	75796.2	3.43851	352.426
50	12.589	76335.4	4463.73	76465.8	3.34657	355.626
51	10	76982.1	4381.21	77106.7	3.2573	360.796
52	7.9433	77623.7	4285.19	77741.9	3.15978	364.952
53	6.3096	78228.7	4206.28	78341.7	3.07778	369.627
54	5.0119	78806.9	4120.81	78914.5	2.99327	374.282
55	3.9811	79364.2	4043.34	79467.1	2.91651	377.437
56	3.1623	79871.2	3983.03	79970.4	2.85487	381.337
57	2.5119	80409	3969.73	80507	2.82636	396.722
58	1.9953	80873.7	3930.17	80969.1	2.78218	416.062
59	1.5849	81421.2	4030.01	81520.9	2.83359	422.988
60	1.2589	81823.2	4139.61	81927.8	2.89625	427.813
61	1	82163.8	4344.97	82278.6	3.02708	436.808
62	0.79433	82672.1	4595.67	82799.7	3.18175	441.273
63	0.63096	83156.4	4942.94	83303.2	3.40174	446.058
64	0.50119	83610.6	5375.31	83783.2	3.67847	450.738
65	0.39811	84202.3	5965.93	84413.4	4.05277	455.728
66	0.31623	84803.2	6679.81	85065.8	4.5038	462.513
67	0.25119	85445.9	7456.7	85770.6	4.98746	470.028
68	0.19953	86160.7	8548.65	86583.8	5.6662	477.839
69	0.15849	87015.7	9619.83	87545.8	6.30859	485.649
70	0.12589	87840.2	10934.3	88518.1	7.09563	495.599
71	0.1	88906.5	12692.8	89808	8.12499	506.679