File: data/20210121/Z_p18_1.txt
Index	Frequency (Hz)	Z' (Ω)	-Z'' (Ω)	Z (Ω)	-Phase (°)	Time (s)
1	1000000	3162.9	7827.87	8442.72	67.9985	100.929
2	794330	5146.27	8437.02	9882.68	58.6184	104.084
3	630960	7263.07	9478.35	11941.2	52.5378	106.429
4	501190	9460.98	10462.7	14105.9	47.8782	108.914
5	398110	12163.4	12338.5	17325.9	45.4096	118.799
6	316230	14835.3	13233.6	19879.9	41.7341	121.079
7	251190	16948.8	13241.5	21508.1	37.9994	126.839
8	199530	19508.6	13488.9	23717.9	34.6612	128.809
9	158490	22039.4	13435.3	25811.7	31.3665	130.829
10	125890	24506	13167.9	27819.8	28.2505	132.664
11	100000	26788.3	12668	29632.6	25.3091	134.839
12	79433	28918.4	11993.5	31306.9	22.5256	136.979
13	63096	30871.8	11192.9	32838.2	19.9286	139.399
14	50119	32541	10307.7	34134.6	17.5761	141.514
15	39811	34103.1	9443.27	35386.4	15.4776	143.794
16	31623	35357.2	8522.96	36369.9	13.5528	145.614
17	25119	36393.9	7809.97	37222.5	12.1117	147.76
18	19953	37343.5	7130.94	38018.3	10.8108	149.835
19	15849	38233.3	6473.8	38777.5	9.61036	151.88
20	12589	38993.1	5923.45	39440.5	8.63777	154.085
21	10000	39784.5	5442.61	40155.1	7.78983	157.62
22	7943.3	40447.6	5050.98	40761.8	7.11808	159.755
23	6309.6	41021.6	4716.56	41291.9	6.55891	162.07
24	5011.9	41578.8	4442.75	41815.5	6.09899	164.24
25	3981.1	42108.4	4217.17	42319	5.71912	166.415
26	3162.3	42619.6	4040.69	42810.7	5.41593	168.66
27	2511.9	43101.4	3900.8	43277.5	5.17134	170.565
28	1995.3	43619.3	3796.81	43784.2	4.97473	172.67
29	1584.9	44102.1	3719.29	44258.7	4.82056	174.45
30	1258.9	44605.7	3666.66	44756.1	4.69925	176.345
31	1000	45086.2	3632.63	45232.3	4.60642	178.355
32	794.33	45569.3	3613.03	45712.3	4.5333	180.455
33	630.96	46089.3	3606.22	46230.1	4.47395	182.405
34	501.19	46611.3	3607.48	46750.7	4.42558	184.51
35	398.11	47125.7	3610.07	47263.8	4.38059	186.715
36	316.23	47653.8	3623.85	47791.4	4.34871	188.715
37	251.19	48180.3	3632.43	48317	4.31151	190.9
38	199.53	48715.7	3641.33	48851.6	4.27471	192.9
39	158.49	49257.7	3648.89	49392.6	4.2366	195.055
40	125.89	49785.3	3649.03	49918.8	4.19201	196.955
41	100	50341.3	3645.75	50473.1	4.14217	198.825
42	79.433	50870.2	3629.81	50999.5	4.08138	201.005
43	63.096	51412.5	3620.65	51539.9	4.02832	203.236
44	50.119	51943.9	3612.18	52069.3	3.97795	205.756
45	39.811	52463.4	3569.17	52584.7	3.89192	215.716
46	31.623	53009.9	3539.1	53127.9	3.81957	218.181
47	25.119	53539.1	3510.99	53654.1	3.75198	220.591
48	19.953	54054.7	3488.77	54167.1	3.69283	223.196
49	15.849	54551.4	3462.07	54661.2	3.63137	226.126
50	12.589	55052	3428.89	55158.7	3.56404	229.171
51	10	55523.1	3389.95	55626.5	3.49384	232.386
52	7.9433	56029.2	3366.03	56130.2	3.43799	235.446
53	6.3096	56493.9	3345.03	56592.9	3.38856	238.481
54	5.0119	56925.6	3340.13	57023.5	3.358	242.056
55	3.9811	57365.5	3362.2	57463.9	3.35427	245.296
56	3.1623	57776	3407.14	57876.3	3.37491	248.626
57	2.5119	58177.9	3439.98	58279.5	3.38388	252.116
58	1.9953	58621.5	3594.4	58731.6	3.50872	255.566
59	1.5849	59062.2	3777.76	59182.9	3.65979	260.217
60	1.2589	59309.7	3994.37	59444.1	3.85292	263.857
61	1	59748.7	4322.27	59904.8	4.13762	270.442
62	0.79433	60210.5	4735.76	60396.4	4.49725	274.397
63	0.63096	60703.5	5253.51	60930.4	4.94627	279.197
64	0.50119	61125.7	5919.11	61411.6	5.53099	283.537
65	0.39811	61699.3	6708.46	62062.9	6.2053	288.437
66	0.31623	62273.6	7681.28	62745.5	7.03176	293.947
67	0.25119	63063.3	8889.5	63686.8	8.02363	300.022
68	0.19953	63846.1	10037.2	64630.3	8.93433	306.987
69	0.15849	64832.8	11556.7	65854.7	10.107	314.953
70	0.12589	65728.7	13411.2	67082.9	11.5323	324.148
71	0.1	66791.5	15788.1	68632.2	13.2994	335.243