File: data/20210121/Z_p27_1.txt
Index	Frequency (Hz)	Z' (Ω)	-Z'' (Ω)	Z (Ω)	-Phase (°)	Time (s)
1	1000000	2914.88	7466	8014.84	68.6733	94.6925
2	794330	4703.38	8216.87	9467.77	60.213	96.4726
3	630960	6560.35	9351.38	11423.1	54.9489	98.5476
4	501190	8718.17	10480.1	13632.3	50.2436	100.698
5	398110	11374.9	12520.1	16915.8	47.7439	107.748
6	316230	13720.2	13192.8	19034	43.8773	109.528
7	251190	16162.5	13614.8	21132.6	40.1097	115.343
8	199530	18752.2	14023.4	23415.8	36.7902	117.268
9	158490	21312	14168.1	25591.8	33.6158	119.213
10	125890	23864.7	14110	27723.9	30.5938	121.038
11	100000	26286.9	13842.5	29708.8	27.771	122.913
12	79433	28604	13445.6	31606.5	25.1763	124.808
13	63096	30849	12904.5	33439.3	22.7001	126.738
14	50119	32855.4	12283.5	35076.5	20.4991	128.563
15	39811	34818.1	11488.4	36664.5	18.2606	130.488
16	31623	36457.9	10630	37976	16.2551	132.478
17	25119	37866	9861.58	39129.1	14.5975	134.338
18	19953	39239.2	9192.86	40301.7	13.1853	136.083
19	15849	40440.6	8465.27	41317.1	11.8228	138.008
20	12589	41636.9	7835.47	42367.8	10.6576	139.763
21	10000	42664	7173.01	43262.8	9.54376	143.178
22	7943.3	43587.6	6641.37	44090.7	8.66342	144.993
23	6309.6	44398.6	6172.08	44825.6	7.91426	147.514
24	5011.9	45152.3	5753.78	45517.4	7.26209	149.274
25	3981.1	45889.7	5396.82	46205.9	6.70742	151.184
26	3162.3	46542.2	5089	46819.6	6.24002	152.914
27	2511.9	47146.5	4827.17	47393	5.84595	154.939
28	1995.3	47745.4	4606.17	47967	5.51048	156.819
29	1584.9	48335.4	4434.14	48538.4	5.24147	158.669
30	1258.9	48901.7	4282.83	49088.9	5.00522	160.439
31	1000	49454.1	4174.18	49629.9	4.82462	162.319
32	794.33	50010.8	4086.16	50177.5	4.671	164.324
33	630.96	50569.6	4015.34	50728.8	4.53988	166.144
34	501.19	51134.5	3967.08	51288.2	4.43619	168.004
35	398.11	51655.1	3930.74	51804.5	4.35158	169.714
36	316.23	52212.4	3904.09	52358.1	4.27623	171.479
37	251.19	52758.5	3888.06	52901.5	4.21483	173.019
38	199.53	53340.6	3881.79	53481.6	4.16229	174.624
39	158.49	53857.6	3879.31	53997.1	4.11985	176.754
40	125.89	54410.9	3880.43	54549.1	4.07926	178.724
41	100	54970.3	3880.38	55107.1	4.03784	180.494
42	79.433	55540	3884.62	55675.7	4.0009	182.359
43	63.096	56121.1	3894.58	56256.1	3.96973	184.454
44	50.119	56715.8	3850.24	56846.3	3.88365	186.514
45	39.811	57236.3	3894.86	57368.7	3.89291	196.024
46	31.623	57829.7	3885.18	57960.1	3.84354	198.304
47	25.119	58398.2	3882.64	58527.1	3.80375	200.49
48	19.953	58974.4	3891.48	59102.6	3.77524	202.795
49	15.849	59550.5	3885.71	59677.1	3.73329	205.23
50	12.589	60085.7	3880.99	60210.9	3.69566	207.975
51	10	60662.6	3874.33	60786.2	3.65434	210.59
52	7.9433	61212.2	3880.81	61335	3.62766	213.32
53	6.3096	61727.7	3876.54	61849.3	3.59349	216.22
54	5.0119	62247.2	3893.11	62368.9	3.57877	219.19
55	3.9811	62779.9	3944.33	62903.7	3.59505	222.195
56	3.1623	63233.9	4012.47	63361.1	3.6308	225.355
57	2.5119	63704.2	4151.26	63839.4	3.72838	228.42
58	1.9953	64217.7	4348.85	64364.8	3.87418	231.895
59	1.5849	64677.8	4509.14	64834.8	3.98803	235.19
60	1.2589	65144.6	4747.05	65317.3	4.16775	238.71
61	1	65603.2	5215.33	65810.2	4.54535	245.145
62	0.79433	66143.8	5684.1	66387.6	4.91168	249.225
63	0.63096	66583.7	6267.99	66878.1	5.3778	253.065
64	0.50119	67064	7182.87	67447.6	6.11334	257.461
65	0.39811	67564.7	8114.81	68050.3	6.84866	262.156
66	0.31623	68157.9	9414.89	68805.1	7.8647	267.596
67	0.25119	68715.9	11015.3	69593.2	9.10716	273.751
68	0.19953	69628.6	13273.2	70882.5	10.7927	280.556
69	0.15849	70478.1	15710.4	72207.9	12.5664	288.171
70	0.12589	71630.1	18595.7	74004.6	14.5531	297.286
71	0.1	72297.8	22103.5	75601.2	16.9999	307.831