File: data/20210121/Z_p21_1.txt
Index	Frequency (Hz)	Z' (Ω)	-Z'' (Ω)	Z (Ω)	-Phase (°)	Time (s)
1	1000000	3904.09	6579.2	7650.35	59.3152	53.0448
2	794330	5424.36	6680.72	8605.56	50.9254	63.39
3	630960	7042.28	7085.84	9990.14	45.1767	68.7951
4	501190	8653.76	7479.16	11437.9	40.8358	71.5051
5	398110	10821.6	8201.35	13578.2	37.1574	80.0953
6	316230	12344.4	8198.75	14819.1	33.5908	82.2803
7	251190	13818.9	7997.86	15966.5	30.0606	88.9605
8	199530	15338.5	7836.23	17224.3	27.0618	91.1255
9	158490	16750.6	7527.29	18364.2	24.1979	93.5056
10	125890	18049.4	7113.4	19400.6	21.5097	95.1406
11	100000	19199.6	6624.09	20310.1	19.0351	96.8706
12	79433	20241	6083.96	21135.6	16.7295	102.231
13	63096	21135.4	5523.66	21845.3	14.6465	106.846
14	50119	21907.9	4970.6	22464.7	12.7832	114.091
15	39811	22563.9	4424.85	22993.7	11.0951	116.816
16	31623	23083.2	3876.96	23406.5	9.5342	125.351
17	25119	23536.1	3441.02	23786.4	8.3178	128.941
18	19953	23926.1	3054.05	24120.3	7.27417	131.561
19	15849	24263.4	2686.76	24411.7	6.31879	139.691
20	12589	24570.8	2374.94	24685.3	5.52089	150.197
21	10000	24843.8	2081.57	24930.9	4.78941	158.517
22	7943.3	25052.5	1849.48	25120.7	4.22214	164.832
23	6309.6	25250	1648.07	25303.7	3.7344	171.417
24	5011.9	25419.9	1474.37	25462.6	3.31947	183.317
25	3981.1	25592.2	1325.62	25626.5	2.96515	185.422
26	3162.3	25721.6	1197.29	25749.4	2.66508	187.327
27	2511.9	25839.8	1088.55	25862.7	2.41226	189.152
28	1995.3	25962.7	996.266	25981.8	2.19754	191.002
29	1584.9	26074.2	916.907	26090.4	2.01399	192.732
30	1258.9	26180.1	847.102	26193.8	1.85325	194.482
31	1000	26281.7	787.351	26293.5	1.71596	196.567
32	794.33	26374.7	736.721	26385	1.60002	198.748
33	630.96	26468.1	688.616	26477.1	1.49032	200.773
34	501.19	26544.3	647.363	26552.2	1.39705	202.568
35	398.11	26640.5	613.863	26647.6	1.32	204.368
36	316.23	26707.9	584.277	26714.3	1.25323	206.388
37	251.19	26784.2	558.867	26790	1.19533	208.418
38	199.53	26844.7	535.354	26850.1	1.14248	210.473
39	158.49	26919.3	516.265	26924.2	1.0987	212.513
40	125.89	26993.9	500.254	26998.5	1.06169	214.583
41	100	27049	490.494	27053.5	1.03886	216.658
42	79.433	27105	483.239	27109.3	1.02138	218.663
43	63.096	27163.5	476.191	27167.6	1.00432	220.873
44	50.119	27215.1	495.162	27219.6	1.04234	222.968
45	39.811	27283.4	494.648	27287.9	1.03866	232.878
46	31.623	27319.2	507.401	27323.9	1.06404	235.118
47	25.119	27391.4	526.701	27396.5	1.10159	237.403
48	19.953	27441.7	569.828	27447.7	1.18958	240.178
49	15.849	27497.1	613.602	27503.9	1.27835	242.818
50	12.589	27552.1	667.837	27560.1	1.38853	245.613
51	10	27633.3	735.573	27643.1	1.5248	248.413
52	7.9433	27700.4	821.761	27712.6	1.69924	251.448
53	6.3096	27781	924.629	27796.4	1.90626	254.614
54	5.0119	27871.8	1050.54	27891.6	2.15857	257.674
55	3.9811	27963.5	1203.87	27989.4	2.46515	260.859
56	3.1623	28092.6	1383.32	28126.7	2.81905	264.019
57	2.5119	28245.1	1600.65	28290.4	3.24349	267.284
58	1.9953	28367	1848.25	28427.1	3.72784	270.804
59	1.5849	28564.9	2149.5	28645.7	4.30337	274.104
60	1.2589	28803.6	2489.03	28910.9	4.93888	277.494
61	1	29049.2	2877.42	29191.4	5.65688	283.879
62	0.79433	29381.7	3325.84	29569.3	6.45807	287.824
63	0.63096	29719.4	3816.27	29963.5	7.3173	291.909
64	0.50119	30140.6	4380.12	30457.2	8.2685	296.484
65	0.39811	30591.7	5017.25	31000.4	9.31399	301.444
66	0.31623	31121.2	5748.87	31647.8	10.466	306.685
67	0.25119	31673.6	6572.77	32348.4	11.7234	312.8
68	0.19953	32358.3	7647.44	33249.7	13.2971	319.5
69	0.15849	33002.6	8842.2	34166.6	14.9987	327.295
70	0.12589	33821.3	10190.7	35323.2	16.768	336.46
71	0.1	34404.1	11699.7	36339	18.7814	347.15