File: data/20210121/Z_p28_1.txt
Index	Frequency (Hz)	Z' (Ω)	-Z'' (Ω)	Z (Ω)	-Phase (°)	Time (s)
1	1000000	2856.89	8403.02	8875.39	71.2228	40.2015
2	794330	4947.99	9314.4	10547.1	62.0219	42.1216
3	630960	7082.23	10765.9	12886.5	56.6615	44.0866
4	501190	9465.09	12226.3	15461.9	52.2546	46.3216
5	398110	12538	15095.4	19623.2	50.2876	52.1818
6	316230	15304.4	16837.6	22753.6	47.7309	54.2068
7	251190	18222.5	17095.2	24986.1	43.1718	59.8819
8	199530	21416.6	17960.3	27950.7	39.9837	61.8369
9	158490	24731	18530.6	30903.2	36.8436	63.972
10	125890	28097.6	18804.5	33809.6	33.7927	65.917
11	100000	31419	18823	36625.9	30.9257	67.742
12	79433	34707.4	18546.9	39352.1	28.119	69.8071
13	63096	37880.9	18010.5	41944.5	25.4287	71.8921
14	50119	40900.9	17362	44433.4	23.0007	73.7872
15	39811	43782.9	16309.2	46721.8	20.4305	75.9722
16	31623	46270.3	15141	48684.6	18.1197	78.0972
17	25119	48472.7	14143.4	50493.9	16.2662	79.8723
18	19953	50414.9	13081.2	52084.3	14.5458	82.0223
19	15849	52283.5	12053.4	53654.9	12.9821	84.0923
20	12589	53873.9	11028.9	54991.2	11.5695	86.0374
21	10000	55350.2	10110.6	56266	10.3519	89.2924
22	7943.3	56618.9	9287.95	57375.6	9.31602	91.1175
23	6309.6	57759.5	8555.39	58389.7	8.42544	93.0625
24	5011.9	58798.9	7906.59	59328.1	7.65853	95.0625
25	3981.1	59746.9	7348.18	60197	7.01151	97.1176
26	3162.3	60615.7	6862.73	61002.9	6.45935	99.1276
27	2511.9	61445.5	6467.14	61784.9	6.00826	101.198
28	1995.3	62197.8	6123.35	62498.5	5.62264	103.088
29	1584.9	62943.8	5860.25	63216	5.31907	104.983
30	1258.9	63689	5632.95	63937.6	5.05435	106.903
31	1000	64412.8	5463.65	64644.1	4.84836	108.703
32	794.33	65075	5321	65292.2	4.67451	110.608
33	630.96	65794.2	5225.39	66001.3	4.54091	112.473
34	501.19	66512.9	5143.81	66711.5	4.4222	114.623
35	398.11	67224.8	5095.63	67417.7	4.33472	116.518
36	316.23	67907.7	5059.04	68095.9	4.26059	118.358
37	251.19	68619.6	5038.51	68804.3	4.19951	120.333
38	199.53	69358.3	5027.44	69540.3	4.14583	122.483
39	158.49	70073.4	5031.05	70253.7	4.10661	124.503
40	125.89	70759.4	5017.63	70937.1	4.05612	126.468
41	100	71491	5022.65	71667.3	4.01875	128.518
42	79.433	72248.8	5014.02	72422.6	3.96993	131.003
43	63.096	72954.8	5025.83	73127.7	3.94086	133.118
44	50.119	73662.1	4999.54	73831.5	3.88279	135.273
45	39.811	74406.9	4978.68	74573.3	3.82804	145.138
46	31.623	75158	4959.49	75321.5	3.77534	147.114
47	25.119	75874.9	4925.3	76034.6	3.71405	149.384
48	19.953	76652.7	4920.19	76810.4	3.67267	152.024
49	15.849	77397.9	4878.31	77551.5	3.60652	154.609
50	12.589	78100.6	4844.46	78250.7	3.54942	157.349
51	10	78794.1	4793.71	78939.8	3.48149	160.399
52	7.9433	79496.5	4746.88	79638.1	3.41718	163.414
53	6.3096	80181	4691.07	80318.2	3.34833	166.324
54	5.0119	80785.2	4638.98	80918.3	3.28652	169.129
55	3.9811	81443.2	4612.1	81573.7	3.24118	172.174
56	3.1623	82004.7	4609.33	82134.2	3.2171	175.234
57	2.5119	82523.8	4649.24	82654.6	3.22453	178.474
58	1.9953	83073.5	4727.55	83208	3.25708	181.959
59	1.5849	83593.8	4883.87	83736.3	3.34364	185.229
60	1.2589	84153.1	5090.19	84306.9	3.46144	188.869
61	1	84596.7	5412.64	84769.7	3.66089	195.094
62	0.79433	85129.9	5867.27	85331.8	3.94267	199.019
63	0.63096	85605.7	6411.23	85845.4	4.28303	203.005
64	0.50119	86145.5	7225.21	86448	4.7943	207.51
65	0.39811	86645.8	8241.65	87036.9	5.43356	212.505
66	0.31623	87181.5	9566.29	87704.7	6.26193	217.865
67	0.25119	87925.9	11166.9	88632.1	7.23803	223.915
68	0.19953	88500	12950.2	89442.5	8.32498	230.94
69	0.15849	89297.2	15294.9	90597.6	9.71934	238.73
70	0.12589	90251	18392.6	92106.1	11.5188	247.735
71	0.1	92016.5	22137.4	94642	13.5272	258.501