File: data/20210121/Z_p23_1.txt
Index	Frequency (Hz)	Z' (Ω)	-Z'' (Ω)	Z (Ω)	-Phase (°)	Time (s)
1	1000000	4335.96	8647.56	9673.72	63.3704	96.4616
2	794330	6533.11	8937.65	11070.8	53.8345	127.162
3	630960	8936.96	9524.63	13060.9	46.8232	132.257
4	501190	11047.7	10259.2	15076.6	42.8807	135.357
5	398110	14208	11917.6	18544.4	39.9898	144.533
6	316230	16430.6	12498.8	20644.2	37.2604	146.758
7	251190	18492.5	12180.8	22143.7	33.3724	153.468
8	199530	20683.4	12292.7	24060.6	30.7243	155.618
9	158490	22793.8	12270.1	25886.6	28.294	158.078
10	125890	24882.2	12141.3	27686.3	26.01	160.773
11	100000	26843.2	11917.6	29369.8	23.9397	163.508
12	79433	28751.5	11612.8	31008.2	21.9939	166.473
13	63096	30672.6	11273.4	32678.7	20.1804	169.513
14	50119	32445.4	10815.7	34200.6	18.4358	173.928
15	39811	34170.1	10218.9	35665.4	16.6498	193.008
16	31623	35694	9545.54	36948.3	14.9721	203.519
17	25119	37109.2	9015.01	38188.5	13.6545	206.369
18	19953	38429.4	8388.76	39334.3	12.3139	209.614
19	15849	39613	7717.62	40357.8	11.0246	212.479
20	12589	40691.1	7093.85	41304.9	9.88921	215.764
21	10000	41743.5	6398.95	42231.1	8.71515	220.729
22	7943.3	42571.8	5806.72	42966	7.76711	223.119
23	6309.6	43308.9	5251.06	43626.1	6.91318	225.599
24	5011.9	43973.7	4737.76	44228.1	6.14938	228.839
25	3981.1	44524.3	4270.72	44728.6	5.47899	232.089
26	3162.3	45033.1	3853.85	45197.7	4.89135	234.489
27	2511.9	45499.1	3481.52	45632.1	4.37566	237.584
28	1995.3	45889.3	3150.81	45997.3	3.92783	240.439
29	1584.9	46224.7	2856.7	46312.9	3.5364	243.794
30	1258.9	46560.3	2606.4	46633.2	3.20402	247.264
31	1000	46843.5	2378.87	46903.9	2.90717	250.369
32	794.33	47134.7	2186.41	47185.4	2.65584	253.825
33	630.96	47385.2	2018.1	47428.2	2.43871	256.915
34	501.19	47626.1	1871.32	47662.9	2.2501	260.22
35	398.11	47865.7	1753.55	47897.8	2.09808	263.075
36	316.23	48019.2	1646.8	48047.5	1.96416	268.065
37	251.19	48232.9	1565.32	48258.3	1.85879	271.295
38	199.53	48421.5	1495.01	48444.6	1.76844	273.885
39	158.49	48604.9	1442.01	48626.3	1.69935	277.12
40	125.89	48779.8	1402.91	48800	1.64738	280.14
41	100	48914.8	1381.5	48934.4	1.61778	282.92
42	79.433	49111.6	1365.59	49130.6	1.59274	285.865
43	63.096	49245.3	1377.45	49264.6	1.60222	288.595
44	50.119	49463.1	1383.2	49482.5	1.60182	291.405
45	39.811	49587.3	1420.16	49607.6	1.64048	301.755
46	31.623	49761	1465.39	49782.6	1.68679	305.27
47	25.119	49934.4	1528.55	49957.7	1.75334	308.191
48	19.953	50123.3	1633.34	50149.9	1.86641	311.831
49	15.849	50307.3	1744.93	50337.5	1.98654	315.611
50	12.589	50509.6	1882.68	50544.7	2.13464	319.386
51	10	50746.4	2046.98	50787.6	2.30992	323.416
52	7.9433	50969.9	2230.68	51018.7	2.50593	328.676
53	6.3096	51233.8	2443.39	51292	2.73042	333.326
54	5.0119	51507.5	2707.47	51578.6	3.00896	337.311
55	3.9811	51781.8	3003.95	51868.8	3.3201	341.476
56	3.1623	52097.2	3365.93	52205.8	3.69667	345.361
57	2.5119	52416.2	3786.37	52552.8	4.13168	349.151
58	1.9953	52756.3	4235.3	52926	4.58988	353.141
59	1.5849	53127.4	4877.42	53350.9	5.24539	358.431
60	1.2589	53549.4	5597.43	53841.2	5.96735	362.967
61	1	54030.4	6518.78	54422.2	6.87949	371.047
62	0.79433	54577.4	7613.9	55106	7.94187	376.277
63	0.63096	55194.1	8899.61	55907	9.15965	382.142
64	0.50119	55800.7	10358.4	56753.9	10.5163	387.387
65	0.39811	56595.2	12411.3	57940.1	12.3691	392.222
66	0.31623	57697.6	14617.3	59520.4	14.2164	398.097
67	0.25119	58939.7	17321	61432.2	16.3769	404.257
68	0.19953	60395.7	20927.6	63918.8	19.1116	411.292
69	0.15849	62011.7	24445.7	66656.1	21.5149	419.418
70	0.12589	64194	29030.2	70453	24.3337	428.738
71	0.1	67102.8	34359.6	75388.1	27.1144	440.003