File: data/20210121/Z_p29_1.txt
Index	Frequency (Hz)	Z' (Ω)	-Z'' (Ω)	Z (Ω)	-Phase (°)	Time (s)
1	1000000	2818.11	7395.71	7914.44	69.1408	60.4969
2	794330	4666.55	8187.55	9424.05	60.3187	74.9822
3	630960	6470.71	9237.54	11278.4	54.9895	83.8173
4	501190	8498.5	10448.7	13468.5	50.8766	100.508
5	398110	11089.9	12442.3	16667.3	48.2891	116.793
6	316230	13381.5	13716.4	19162.6	45.708	119.713
7	251190	15527	13937.7	20865	41.9125	140.523
8	199530	18029.8	14669	23243.4	39.1317	166.559
9	158490	20605.8	15244.8	25632.1	36.495	189.289
10	125890	23252.6	15647	28027	33.9372	195.544
11	100000	25912.7	15899.3	30401.6	31.5321	202.64
12	79433	28674.9	16007.6	32840.4	29.1722	207.035
13	63096	31443.7	15892.5	35231.8	26.8133	213.76
14	50119	34093.6	15611.7	37497.9	24.6034	222.87
15	39811	36825	15059.4	39785.2	22.2418	226.915
16	31623	39245.5	14238.3	41748.5	19.9408	230.06
17	25119	41429	13369.6	43532.9	17.8855	236.205
18	19953	43541.2	12578.5	45321.6	16.1134	241.21
19	15849	45272.4	11602	46735.4	14.3739	271.386
20	12589	46794.5	10597.8	47979.6	12.7608	280.721
21	10000	48200	9618.78	49150.4	11.2857	285.536
22	7943.3	49428.6	8776.68	50201.8	10.0687	287.751
23	6309.6	50533.6	8010.55	51164.6	9.00753	290.471
24	5011.9	51510.6	7314.24	52027.3	8.08169	293.306
25	3981.1	52357.5	6705.4	52785.1	7.29812	297.591
26	3162.3	53150.4	6178.5	53508.3	6.63062	300.081
27	2511.9	53870.8	5725.27	54174.2	6.06649	304.516
28	1995.3	54543.5	5343.3	54804.6	5.59507	307.451
29	1584.9	55169.2	5024	55397.5	5.20331	309.792
30	1258.9	55800.4	4750.53	56002.3	4.86611	312.192
31	1000	56356.4	4537.82	56538.8	4.60353	314.337
32	794.33	56950.1	4360.01	57116.7	4.37793	316.562
33	630.96	57504.4	4214.35	57658.6	4.19157	318.362
34	501.19	58068.8	4098.28	58213.2	4.03703	320.112
35	398.11	58613.4	4006.02	58750.1	3.90989	321.722
36	316.23	59132.1	3928.12	59262.4	3.80055	323.737
37	251.19	59703.5	3871.81	59828.9	3.71047	325.457
38	199.53	60248.5	3829.8	60370.1	3.63721	327.277
39	158.49	60770.8	3790.96	60888.9	3.56956	329.172
40	125.89	61287.9	3750.97	61402.5	3.50228	331.117
41	100	61798.1	3721.98	61910.1	3.44664	333.127
42	79.433	62330.1	3696.06	62439.6	3.39356	334.962
43	63.096	62912.7	3645.49	63018.2	3.31631	336.752
44	50.119	63458.7	3626.33	63562.2	3.27059	338.717
45	39.811	64233.3	3620.51	64335.3	3.22606	348.392
46	31.623	64758.1	3580.26	64857	3.16447	350.347
47	25.119	65330.4	3548.46	65426.7	3.109	352.167
48	19.953	65751.3	3512.15	65845.1	3.05759	354.292
49	15.849	66345.8	3470.28	66436.5	2.99418	356.372
50	12.589	66813.1	3425.71	66900.9	2.93516	358.627
51	10	67362.6	3356.44	67446.2	2.85248	361.072
52	7.9433	67824.3	3309.27	67905	2.79335	363.733
53	6.3096	68401	3263.7	68478.8	2.73175	366.478
54	5.0119	68853.6	3224.57	68929	2.68133	369.288
55	3.9811	69250.4	3199.48	69324.3	2.64528	371.983
56	3.1623	69707.6	3181.65	69780.1	2.61333	374.553
57	2.5119	70068.3	3189.22	70140.9	2.60607	377.288
58	1.9953	70325	3259.28	70400.5	2.65353	381.578
59	1.5849	70642.6	3300.04	70719.7	2.6746	386.178
60	1.2589	71006	3469.07	71090.6	2.79702	389.913
61	1	71239.6	3675.39	71334.3	2.95338	395.878
62	0.79433	71619.3	3941.6	71727.7	3.15012	399.108
63	0.63096	72010.5	4264.9	72136.7	3.38944	402.863
64	0.50119	72343.8	4745.55	72499.3	3.75306	409.183
65	0.39811	72685.7	5352.85	72882.5	4.21187	421.159
66	0.31623	73097.4	6115.5	73352.8	4.78236	426.114
67	0.25119	73447.1	6975.39	73777.6	5.4252	431.729
68	0.19953	73935.1	8088.95	74376.3	6.24367	437.999
69	0.15849	74434.9	9586.51	75049.7	7.33876	445.229
70	0.12589	75193	11487	76065.3	8.68575	453.894
71	0.1	76017.9	13629.6	77230.1	10.1648	465.644