File: data/20210121/Z_p26_1.txt
Index	Frequency (Hz)	Z' (Ω)	-Z'' (Ω)	Z (Ω)	-Phase (°)	Time (s)
1	1000000	3397.65	9795.39	10367.9	70.8703	53.0748
2	794330	6190.8	10558.7	12239.7	59.6159	57.3848
3	630960	8867.58	12018	14935.4	53.578	62.0999
4	501190	12092.3	13348.8	18011.6	47.8275	69.9651
5	398110	15969	16327.5	22838.5	45.6359	84.3553
6	316230	19639.6	17073.9	26023.7	41.0025	87.6754
7	251190	22198.8	17259.5	28118.9	37.8649	107.856
8	199530	25433.1	17527.4	30887.7	34.573	112.626
9	158490	28600.3	17519.4	33539.7	31.49	116.171
10	125890	31661.1	17296.9	36077.8	28.6483	118.531
11	100000	34558.2	16853.2	38448.6	25.9974	121.356
12	79433	37415.3	16267.1	40798.5	23.498	123.746
13	63096	39947	15570.8	42874.4	21.2952	126.786
14	50119	42580.4	14596.9	45012.9	18.9221	129.601
15	39811	44943.7	13629.5	46964.9	16.8703	131.831
16	31623	46804.8	12353.9	48407.7	14.7858	133.996
17	25119	48536.1	11380.2	49852.4	13.1957	136.816
18	19953	50156	10371.1	51217.1	11.6828	138.936
19	15849	51541.5	9319.49	52377.3	10.2492	141.391
20	12589	52773.1	8372.15	53433.1	9.01452	143.746
21	10000	53841.3	7453.21	54354.8	7.88132	147.447
22	7943.3	54761.8	6650.1	55164.1	6.92391	149.752
23	6309.6	55525.7	5925.84	55841	6.09169	151.932
24	5011.9	56188.9	5274.4	56435.9	5.36259	153.722
25	3981.1	56755.8	4709.97	56950.9	4.74391	155.302
26	3162.3	57278.2	4209.24	57432.7	4.20297	157.147
27	2511.9	57697.8	3777.31	57821.3	3.74564	159.087
28	1995.3	58104.2	3399.49	58203.6	3.34838	160.962
29	1584.9	58476	3078.25	58557	3.01334	162.697
30	1258.9	58809.7	2806.87	58876.6	2.73254	164.737
31	1000	59117.2	2555.93	59172.4	2.47564	166.662
32	794.33	59409.7	2345.2	59456	2.26057	168.397
33	630.96	59665.7	2174.78	59705.3	2.08747	170.387
34	501.19	59929.3	2022.02	59963.4	1.93243	172.177
35	398.11	60155.8	1898.96	60185.8	1.80807	174.167
36	316.23	60398.7	1782.87	60425	1.69079	176.092
37	251.19	60593.8	1692.77	60617.4	1.60022	177.847
38	199.53	60797	1619.59	60818.5	1.52596	179.717
39	158.49	61035.3	1556.59	61055.1	1.46091	181.552
40	125.89	61180.9	1505.81	61199.4	1.40991	183.572
41	100	61359	1474.93	61376.8	1.37699	185.512
42	79.433	61539.6	1453.15	61556.8	1.35269	187.617
43	63.096	61729.8	1450	61746.8	1.3456	189.657
44	50.119	61870.9	1401.91	61886.8	1.29803	191.497
45	39.811	62072.5	1475.6	62090.1	1.36179	201.298
46	31.623	62236	1510.83	62254.3	1.39063	203.483
47	25.119	62427.9	1561.83	62447.4	1.43313	205.728
48	19.953	62604	1661.17	62626	1.51996	208.158
49	15.849	62790	1763.49	62814.8	1.60876	210.743
50	12.589	62978	1899.99	63006.7	1.72803	213.348
51	10	63185.2	2079.58	63219.4	1.88506	216.913
52	7.9433	63391.6	2277.12	63432.5	2.05727	219.893
53	6.3096	63647.1	2541.5	63697.8	2.28667	222.923
54	5.0119	63879.2	2826.43	63941.7	2.53349	225.793
55	3.9811	64148.9	3189.79	64228.2	2.84668	228.748
56	3.1623	64450.5	3634.21	64552.9	3.22735	232.053
57	2.5119	64811.1	4160.86	64944.6	3.67333	235.198
58	1.9953	65245.8	4741.93	65417.9	4.15683	238.483
59	1.5849	65528.6	5491.21	65758.2	4.79013	241.738
60	1.2589	65972	6366.03	66278.4	5.51175	244.923
61	1	66532.4	7508.25	66954.7	6.43865	250.878
62	0.79433	67081.6	8837.23	67661.2	7.50484	254.319
63	0.63096	67854.6	10300.8	68632	8.63196	258.439
64	0.50119	68494.5	12286.7	69587.8	10.1697	262.814
65	0.39811	69588	14511.2	71084.9	11.7791	267.529
66	0.31623	70646.8	17188.8	72707.8	13.6747	272.759
67	0.25119	71737.7	20579.7	74631.3	16.0068	278.509
68	0.19953	73830.6	24408.6	77760.7	18.294	285.369
69	0.15849	75987.9	29248.7	81422.7	21.0523	293.254
70	0.12589	78466.6	34447.3	85695	23.7018	302.424
71	0.1	80567.3	40556.7	90199.4	26.7202	313.16