File: data/20210121/Z_p22_1.txt
Index	Frequency (Hz)	Z' (Ω)	-Z'' (Ω)	Z (Ω)	-Phase (°)	Time (s)
1	1000000	4336.93	7624.04	8771.26	60.3666	29.3433
2	794330	6207.11	7591.47	9806.05	50.7291	32.5734
3	630960	8184.37	8026.09	11463.1	44.4406	35.3384
4	501190	10096.3	8359.45	13107.8	39.6239	39.3035
5	398110	12820.7	9291.4	15833.5	35.9316	48.3387
6	316230	14686.1	9227.07	17344.1	32.1406	51.1337
7	251190	16158.8	8782.95	18391.5	28.5258	59.5489
8	199530	17805.9	8469.29	19717.5	25.4379	61.9589
9	158490	19314.7	8020.83	20913.9	22.5517	64.904
10	125890	20675.9	7464.14	21982	19.8499	72.9641
11	100000	21816.8	6844.16	22865.2	17.4172	76.2242
12	79433	22854.7	6213.41	23684.3	15.2092	83.1043
13	63096	23706.5	5594.52	24357.7	13.2783	87.1194
14	50119	24468.9	4976.25	24969.8	11.4955	91.2145
15	39811	25092.5	4358.81	25468.2	9.85451	96.8046
16	31623	25568.1	3807.02	25850	8.46897	102.685
17	25119	25973.4	3383.82	26192.9	7.4227	108.945
18	19953	26345.7	3002.02	26516.1	6.50066	118.185
19	15849	26660.5	2653.09	26792.2	5.68301	126.28
20	12589	26926.5	2344.68	27028.4	4.97659	131.105
21	10000	27204.1	2063.15	27282.2	4.33698	140.515
22	7943.3	27426.8	1848.74	27489	3.85627	143.13
23	6309.6	27635.8	1660.01	27685.7	3.43747	145.295
24	5011.9	27800.1	1497.98	27840.4	3.08434	149.261
25	3981.1	27963.7	1357.95	27996.6	2.78016	155.446
26	3162.3	28113.9	1239.37	28141.2	2.52418	159.511
27	2511.9	28254.9	1136.33	28277.8	2.30303	163.266
28	1995.3	28373.6	1044.86	28392.8	2.10897	166.391
29	1584.9	28484.5	965.853	28500.8	1.94204	170.301
30	1258.9	28616	898.786	28630.1	1.79898	174.061
31	1000	28721.4	837.588	28733.6	1.67041	177.036
32	794.33	28820.3	781.715	28830.9	1.5537	180.601
33	630.96	28937.3	734.09	28946.7	1.45318	184.001
34	501.19	29024.5	687.549	29032.6	1.357	188.416
35	398.11	29113.8	646.61	29120.9	1.27232	191.986
36	316.23	29203.8	610.109	29210.2	1.19682	195.236
37	251.19	29272.6	575.97	29278.3	1.12721	197.796
38	199.53	29363.2	544.564	29368.3	1.06247	200.602
39	158.49	29433.3	516.38	29437.9	1.0051	204.987
40	125.89	29487.3	489.614	29491.3	0.951267	208.387
41	100	29541	464.533	29544.7	0.900903	211.897
42	79.433	29593.8	444.074	29597.2	0.859694	216.232
43	63.096	29647.1	421.719	29650.1	0.814956	219.932
44	50.119	29715.1	403.423	29717.8	0.77782	223.532
45	39.811	29755.6	397.977	29758.2	0.766279	234.572
46	31.623	29813	389.506	29815.5	0.748524	238.082
47	25.119	29866.1	383.386	29868.6	0.735455	241.112
48	19.953	29906.4	395.939	29909	0.758509	244.322
49	15.849	29939.2	403.342	29941.9	0.771843	247.682
50	12.589	29990.3	418.911	29993.2	0.800268	251.187
51	10	30040	436.58	30043.2	0.832637	254.523
52	7.9433	30076.9	470.079	30080.6	0.895415	258.573
53	6.3096	30134.2	502.722	30138.4	0.955764	262.888
54	5.0119	30166.6	554.674	30171.7	1.05338	267.048
55	3.9811	30229	609.326	30235.1	1.15476	270.958
56	3.1623	30294.6	682.875	30302.3	1.29129	275.288
57	2.5119	30351.3	779.27	30361.3	1.47075	279.773
58	1.9953	30416	884.773	30428.9	1.66621	285.208
59	1.5849	30491.9	1005.87	30508.4	1.8894	289.543
60	1.2589	30602	1150.59	30623.6	2.15323	295.948
61	1	30693.1	1339.67	30722.3	2.49922	305.818
62	0.79433	30810.7	1562.52	30850.3	2.90318	313.074
63	0.63096	30971.3	1807.67	31024	3.34034	318.094
64	0.50119	31106.1	2102.59	31177.1	3.86696	324.274
65	0.39811	31264	2454.46	31360.2	4.48893	330.259
66	0.31623	31475.9	2890.76	31608.3	5.24736	336.349
67	0.25119	31662.3	3341.65	31838.2	6.02471	343.584
68	0.19953	31957.9	3910.71	32196.2	6.97665	380.73
69	0.15849	32227	4719.14	32570.7	8.33086	393.15
70	0.12589	32446.8	5554.66	32918.8	9.71448	410.65
71	0.1	32925.7	6528.7	33566.7	11.2155	424.571