File: data/20210121/Z_p25_1.txt
Index	Frequency (Hz)	Z' (Ω)	-Z'' (Ω)	Z (Ω)	-Phase (°)	Time (s)
1	1000000	2603.33	8584.53	8970.59	73.1296	56.6448
2	794330	4933.11	9626.28	10816.7	62.8666	61.0949
3	630960	7127.57	11221.7	13293.9	57.578	64.8949
4	501190	9630.99	12772.2	15996.4	52.9815	79.3602
5	398110	13093.3	15655.1	20408.7	50.0922	91.7454
6	316230	15736.8	16993.4	23160.8	47.1986	105.541
7	251190	18680.1	17582.2	25653	43.2658	139.221
8	199530	21808.1	18510.8	28604.9	40.3246	140.966
9	158490	24999.5	19220.5	31534.2	37.5544	142.751
10	125890	28247.6	19808.4	34500.8	35.0398	144.771
11	100000	31530.3	20231.1	37462.7	32.6859	146.841
12	79433	34824.8	20549.5	40435.7	30.5442	148.881
13	63096	38285.9	20771.2	43557.5	28.4811	150.672
14	50119	41724.3	20894.5	46663.6	26.6006	153.042
15	39811	45221.3	20548.2	49670.8	24.4367	154.957
16	31623	48492.9	20033.7	52468.1	22.4468	156.847
17	25119	51594.1	19641.4	55206.3	20.8414	158.857
18	19953	54803.6	18924.9	57979.2	19.051	160.832
19	15849	57766	18101.5	60535.8	17.3989	163.172
20	12589	60677.6	17017.3	63018.8	15.6664	165.427
21	10000	63377.3	15997	65365	14.166	168.917
22	7943.3	65779.7	14893.5	67444.7	12.7575	170.387
23	6309.6	67911	13761	69291.2	11.4549	171.962
24	5011.9	69830.9	12640	70965.6	10.2599	174.467
25	3981.1	71531.3	11560.8	72459.5	9.18065	176.577
26	3162.3	73022.3	10527.6	73777.3	8.20381	178.287
27	2511.9	74384.7	9571.17	74998	7.33202	180.177
28	1995.3	75535.9	8683.22	76033.4	6.55764	182.147
29	1584.9	76576.5	7871.56	76980	5.86901	184.042
30	1258.9	77516	7138.19	77844	5.26134	185.907
31	1000	78363.9	6500.08	78633	4.74168	187.767
32	794.33	79130.2	5926.54	79351.8	4.28323	190.107
33	630.96	79801.3	5418.21	79985	3.88421	192.687
34	501.19	80452.9	4977.86	80606.7	3.54055	194.967
35	398.11	80993	4594.21	81123.2	3.24654	197.022
36	316.23	81506.1	4278.95	81618.4	3.00518	199.062
37	251.19	82004.7	4002.06	82102.3	2.79398	201.982
38	199.53	82477.6	3795.25	82564.9	2.63464	204.143
39	158.49	82914.8	3619.63	82993.8	2.49965	206.108
40	125.89	83346.5	3492.11	83419.6	2.39921	208.423
41	100	83711.9	3403.15	83781	2.32797	210.518
42	79.433	84109.8	3353.47	84176.7	2.28318	212.983
43	63.096	84493.3	3276.84	84556.8	2.22094	215.553
44	50.119	84916.7	3382.39	84984	2.28099	218.533
45	39.811	85298.8	3439.62	85368.1	2.30916	228.393
46	31.623	85713.1	3540.97	85786.2	2.36565	230.558
47	25.119	86170	3694.4	86249.2	2.45496	232.548
48	19.953	86553	3915.31	86641.5	2.59007	235.113
49	15.849	87032.3	4160.39	87131.6	2.73682	237.463
50	12.589	87515.9	4482.17	87630.6	2.93187	239.813
51	10	88010.4	4878.82	88145.5	3.17292	242.688
52	7.9433	88606.9	5319.94	88766.5	3.4359	245.448
53	6.3096	89160.8	5862.78	89353.4	3.76207	248.518
54	5.0119	89811.9	6481.27	90045.5	4.12759	251.613
55	3.9811	90543.3	7230.12	90831.6	4.56553	255.748
56	3.1623	91305.4	8109.6	91664.8	5.07561	258.969
57	2.5119	92144.3	9075.49	92590.1	5.62504	262.449
58	1.9953	93099.6	10288	93666.3	6.30589	265.644
59	1.5849	94136.1	11686.3	94858.8	7.07666	269.399
60	1.2589	95442.6	13261.4	96359.5	7.91041	272.934
61	1	96781.6	15160.3	97961.8	8.90274	279.394
62	0.79433	98259.2	17379.1	99784.3	10.0302	285.019
63	0.63096	99964.7	19847.1	101916	11.2295	289.044
64	0.50119	101960	23094.7	104543	12.7626	293.439
65	0.39811	104303	26513.8	107620	14.2626	298.824
66	0.31623	106431	31041.5	110865	16.2597	304.259
67	0.25119	109732	36315.8	115585	18.3119	310.294
68	0.19953	113321	41502.2	120681	20.1146	335.275
69	0.15849	117590	48269.3	127111	22.3176	343.26
70	0.12589	122067	56213.9	134389	24.7269	356.125
71	0.1	128303	64537.5	143620	26.7029	367.776