File: data/20210121/Z_p20_1.txt
Index	Frequency (Hz)	Z' (Ω)	-Z'' (Ω)	Z (Ω)	-Phase (°)	Time (s)
1	1000000	3141.63	9185.81	9708.19	71.1188	44.4527
2	794330	5416.06	10180.3	11531.3	61.9863	47.3877
3	630960	7967.01	11805.1	14241.9	55.9853	49.7477
4	501190	10514.7	13477.4	17093.8	52.0394	52.2428
5	398110	13963.3	16890	21914.6	50.4187	60.5079
6	316230	17135.7	18515.1	25227.8	47.2157	62.688
7	251190	20426	19137.4	27990.4	43.1344	69.2531
8	199530	24049.6	20050	31311.1	39.8177	71.2431
9	158490	27847	20608.8	34643.6	36.5041	73.6532
10	125890	31615.6	20809.9	37849.7	33.3535	77.7983
11	100000	35291	20669.7	40898.5	30.3572	83.7684
12	79433	38908.7	20166.5	43824.3	27.3978	85.9384
13	63096	42269.7	19461.3	46534.6	24.7217	87.8934
14	50119	45374.1	18467.2	48988.2	22.1462	90.4035
15	39811	48569.8	17476.3	51618.3	19.7897	92.5335
16	31623	51060.1	16211.3	53571.8	17.6144	94.5536
17	25119	53290.7	15097.3	55388	15.8175	96.4586
18	19953	55300.1	14076.6	57063.6	14.2813	98.5886
19	15849	57227.4	13016	58688.9	12.8136	100.614
20	12589	59040.5	12071.8	60262	11.5557	102.784
21	10000	60686.5	11105.6	61694.3	10.3704	106.219
22	7943.3	62118.9	10317.7	62970	9.43052	108.159
23	6309.6	63440.4	9614.91	64164.9	8.61805	110.234
24	5011.9	64643.6	8992.58	65266.1	7.9196	113.084
25	3981.1	65765.3	8446.54	66305.5	7.31869	115.194
26	3162.3	66812.8	7973.16	67286.8	6.80526	117.414
27	2511.9	67781.5	7568.38	68202.8	6.37116	119.594
28	1995.3	68747.5	7231.68	69126.9	6.00497	121.624
29	1584.9	69649.1	6952.23	69995.3	5.70026	123.599
30	1258.9	70573.7	6714.23	70892.4	5.43464	125.579
31	1000	71433.1	6525.21	71730.5	5.21933	127.684
32	794.33	72316.5	6371.25	72596.7	5.03488	129.729
33	630.96	73154.5	6240.59	73420.2	4.87593	131.614
34	501.19	74031.3	6140.63	74285.5	4.74163	133.829
35	398.11	74924.8	6066.87	75170	4.6293	135.739
36	316.23	75763.1	6002.04	76000.5	4.52958	140.164
37	251.19	76610.3	5940.31	76840.3	4.4338	142.409
38	199.53	77468.1	5899.15	77692.4	4.35464	144.885
39	158.49	78329.3	5855.28	78547.8	4.27503	147.03
40	125.89	79163	5798.43	79375.1	4.18924	149.165
41	100	79969.3	5757.63	80176.3	4.11808	151.17
42	79.433	80845.6	5710.25	81047	4.04018	153.305
43	63.096	81734.2	5613.54	81926.7	3.92893	155.55
44	50.119	82523.9	5483.3	82705.9	3.80143	157.67
45	39.811	83333.2	5522.55	83516	3.79149	167.53
46	31.623	84161.6	5444.96	84337.5	3.70168	169.84
47	25.119	84970	5392.67	85140.9	3.63144	172.315
48	19.953	85778	5341.74	85944.2	3.56344	175.005
49	15.849	86508.7	5273.07	86669.3	3.4881	177.435
50	12.589	87292.3	5201.9	87447.2	3.41032	180.285
51	10	88058.7	5109.93	88206.9	3.32107	183.375
52	7.9433	88744.8	5041.05	88887.8	3.25113	186.46
53	6.3096	89472	4994.88	89611.3	3.19528	189.595
54	5.0119	90115.9	4926.71	90250.4	3.12929	192.88
55	3.9811	90764.7	4876.45	90895.6	3.07533	196.04
56	3.1623	91460.8	4881.93	91591	3.05539	198.996
57	2.5119	91970	4876.94	92099.3	3.03541	202.241
58	1.9953	92585.1	4983.24	92719.2	3.08088	205.571
59	1.5849	93105.2	5205.71	93250.7	3.2002	208.976
60	1.2589	93652.3	5378.11	93806.6	3.28668	212.596
61	1	94192.2	5721.26	94365.8	3.47589	218.931
62	0.79433	94771.2	6220.55	94975.1	3.75537	222.836
63	0.63096	95389.1	6790	95630.4	4.07157	227.121
64	0.50119	95889.6	7543.03	96185.8	4.49784	231.591
65	0.39811	96616.1	8591.22	96997.3	5.08145	236.706
66	0.31623	97344.4	9789.53	97835.4	5.7427	241.886
67	0.25119	98333.8	11459	98999.2	6.6468	247.751
68	0.19953	99289.2	13035.9	100141	7.47972	254.427
69	0.15849	100546	15086.2	101671	8.53318	262.417
70	0.12589	101954	17545.4	103453	9.7644	271.492
71	0.1	103936	20622.9	105962	11.2228	282.642