File: data/20210121/Z_p24_1.txt
Index	Frequency (Hz)	Z' (Ω)	-Z'' (Ω)	Z (Ω)	-Phase (°)	Time (s)
1	1000000	3263.38	7635.83	8303.95	66.8593	26.0203
2	794330	5214.42	8168.84	9691.24	57.4487	29.1853
3	630960	7021.83	9088.15	11484.8	52.309	32.3254
4	501190	9047.83	10106.9	13565.1	48.1647	34.9704
5	398110	11661	11950.3	16697	45.7018	45.3006
6	316230	13955.1	12618.7	18814.2	42.1211	47.5907
7	251190	15927.3	13071.9	20604.7	39.3766	54.9058
8	199530	18254.5	13640.5	22787.9	36.7687	57.4009
9	158490	20641.3	14060.9	24975.4	34.2628	59.7109
10	125890	23054.2	14344.4	27152.5	31.89	62.6709
11	100000	25479.8	14495.5	29314.5	29.6356	65.351
12	79433	27926.1	14520.5	31475.6	27.4726	68.6711
13	63096	30407.3	14407.8	33648	25.3529	71.5911
14	50119	32790.3	14133	35706.4	23.3166	74.3662
15	39811	35221.4	13709.1	37795.3	21.2673	77.3012
16	31623	37394.4	12976	39581.8	19.1369	80.1263
17	25119	39318.2	12251	41182.6	17.3062	82.6413
18	19953	41285.4	11637.1	42894.2	15.7415	85.5764
19	15849	42992.6	10794.5	44327.1	14.0943	87.9064
20	12589	44616.5	9988.22	45720.8	12.6187	90.5665
21	10000	46070.3	9118.78	46964	11.196	95.3016
22	7943.3	47352.1	8317.14	48077	9.96207	97.5016
23	6309.6	48434.2	7545.04	49018.4	8.85432	100.207
24	5011.9	49398.4	6816.42	49866.5	7.85655	103.052
25	3981.1	50222.7	6146.4	50597.4	6.97733	105.267
26	3162.3	50960.5	5535.27	51260.3	6.19909	108.147
27	2511.9	51599.2	4983.62	51839.3	5.51671	111.072
28	1995.3	52182.8	4489.72	52375.6	4.91752	113.862
29	1584.9	52701.9	4059.17	52858	4.4043	116.252
30	1258.9	53153.7	3664.44	53279.9	3.94375	118.782
31	1000	53561.1	3327.86	53664.4	3.55533	121.957
32	794.33	53923.8	3030.38	54008.9	3.21649	125.032
33	630.96	54293.2	2773.32	54364	2.92415	128.312
34	501.19	54609.3	2547.02	54668.7	2.67038	131.207
35	398.11	54911.1	2353.64	54961.5	2.45435	133.482
36	316.23	55187.8	2187.01	55231.1	2.26936	136.167
37	251.19	55413	2046.38	55450.8	2.11495	138.712
38	199.53	55664.6	1926.28	55697.9	1.98194	141.252
39	158.49	55896.9	1827.71	55926.8	1.87278	144.277
40	125.89	56105.8	1744.02	56132.9	1.78043	147.203
41	100	56313.6	1676.74	56338.5	1.70549	149.843
42	79.433	56514.7	1626.05	56538.1	1.64807	153.378
43	63.096	56701.4	1583.28	56723.5	1.59946	155.893
44	50.119	56910.6	1542.59	56931.5	1.55265	158.668
45	39.811	57110.2	1540.95	57131	1.54559	169.453
46	31.623	57324.2	1533.7	57344.7	1.53258	172.803
47	25.119	57500.9	1543.83	57521.7	1.53795	175.878
48	19.953	57700.7	1591.42	57722.6	1.57985	179.433
49	15.849	57878.6	1634.95	57901.7	1.61805	182.433
50	12.589	58078.3	1687.74	58102.8	1.66454	186.253
51	10	58274.1	1765.27	58300.8	1.73511	189.743
52	7.9433	58456.7	1876.92	58486.8	1.83902	193.083
53	6.3096	58670.8	1998.93	58704.8	1.95133	196.858
54	5.0119	58871.6	2169.25	58911.5	2.11023	200.479
55	3.9811	59119.7	2374.1	59167.4	2.29962	204.849
56	3.1623	59367.1	2628.15	59425.3	2.5348	209.624
57	2.5119	59593.1	2930.66	59665.1	2.81541	213.314
58	1.9953	59884.7	3292.21	59975.1	3.14672	217.354
59	1.5849	60147.8	3796.03	60267.5	3.61125	221.304
60	1.2589	60505.3	4313.95	60658.9	4.07822	225.429
61	1	60863.6	4941.47	61063.9	4.64162	232.634
62	0.79433	61271.1	5763.22	61541.6	5.37349	237.794
63	0.63096	61648.5	6709.89	62012.6	6.21169	242.824
64	0.50119	62172	7820.9	62662	7.16984	247.989
65	0.39811	62683.8	9396.86	63384.2	8.52566	253.504
66	0.31623	63378.6	11077.9	64339.5	9.9145	259.57
67	0.25119	64207.5	13234.5	65557.2	11.6467	266.005
68	0.19953	64840.1	15911.5	66763.9	13.7877	273.29
69	0.15849	66242.9	19235.9	68979.3	16.1925	282.92
70	0.12589	67528.5	22922.2	71312.9	18.7495	292.62
71	0.1	69382.5	27582.7	74664.1	21.6801	304.6