File: data/20210121/Z_p35_1.txt
Index	Frequency (Hz)	Z' (Ω)	-Z'' (Ω)	Z (Ω)	-Phase (°)	Time (s)
1	1000000	3362.11	3399.27	4781.09	45.3149	21.0812
2	794330	4014.92	3247.51	5163.9	38.9681	22.8562
3	630960	4701	3203.5	5688.74	34.2725	24.7512
4	501190	5415.85	3132.55	6256.54	30.0453	26.6963
5	398110	6165.24	3040.46	6874.19	26.2508	34.3564
6	316230	6733.47	2832.58	7305.01	22.8151	35.9665
7	251190	7115.22	2574.34	7566.61	19.8905	42.6266
8	199530	7567.87	2376.39	7932.21	17.4328	44.5216
9	158490	7953.42	2155.84	8240.42	15.1661	46.2216
10	125890	8279.19	1931.78	8501.58	13.1338	48.2867
11	100000	8536.3	1710.39	8705.97	11.3302	50.9617
12	79433	8756.41	1503.43	8884.54	9.74236	52.7068
13	63096	8930.6	1314.85	9026.87	8.37545	54.3668
14	50119	9085.61	1135.73	9156.32	7.12522	56.4068
15	39811	9205.59	991.257	9258.8	6.14593	59.9419
16	31623	9291.48	856.569	9330.87	5.26714	61.6019
17	25119	9365.58	747.636	9395.37	4.56413	63.122
18	19953	9443.15	657.251	9465.99	3.98142	64.732
19	15849	9500.38	576.669	9517.86	3.47357	67.352
20	12589	9554.97	511.68	9568.66	3.06533	69.1021
21	10000	9605.47	457.503	9616.36	2.7269	70.9371
22	7943.3	9640.36	408.901	9649.02	2.42878	74.7172
23	6309.6	9678.61	371.382	9685.73	2.19745	80.0423
24	5011.9	9718.96	339.61	9724.89	2.00127	82.0073
25	3981.1	9751.41	312.238	9756.41	1.83397	83.8423
26	3162.3	9786.01	289.396	9790.29	1.69388	86.0724
27	2511.9	9817.7	271.644	9821.46	1.5849	88.0824
28	1995.3	9864.43	255.164	9867.73	1.48174	91.5925
29	1584.9	9894.51	241.305	9897.46	1.39704	93.2425
30	1258.9	9906.81	230.45	9909.49	1.33256	97.9976
31	1000	9934.09	218.137	9936.49	1.25792	99.4626
32	794.33	9958.33	208.296	9960.51	1.19827	101.153
33	630.96	9983.58	201.257	9985.6	1.15486	102.878
34	501.19	10014.3	193.136	10016.1	1.10487	104.463
35	398.11	10036.2	185.182	10037.9	1.05706	105.923
36	316.23	10068.8	179.6	10070.4	1.02189	107.493
37	251.19	10085.6	176.588	10087.1	1.00309	109.408
38	199.53	10108.9	171.041	10110.3	0.969345	111.143
39	158.49	10137.3	168.113	10138.6	0.95009	112.958
40	125.89	10153.6	167.235	10154.9	0.943607	114.723
41	100	10179	169.504	10180.4	0.954021	116.283
42	79.433	10195.3	168.506	10196.7	0.94689	117.983
43	63.096	10218.5	166.413	10219.8	0.933006	119.438
44	50.119	10267.3	173.71	10268.8	0.969277	121.133
45	39.811	10327.6	178.958	10329.1	0.99273	130.513
46	31.623	10343.8	184.964	10345.5	1.02443	132.408
47	25.119	10365.6	194.537	10367.4	1.07517	134.403
48	19.953	10389.3	208.148	10391.4	1.14776	136.678
49	15.849	10414.6	225.31	10417	1.23935	138.878
50	12.589	10440.7	244.326	10443.5	1.34055	141.383
51	10	10453.5	265.283	10456.9	1.4537	144.313
52	7.9433	10485	299.955	10489.3	1.63867	146.899
53	6.3096	10508.7	326.97	10513.8	1.78214	149.379
54	5.0119	10540.4	361.963	10546.6	1.9668	152.044
55	3.9811	10571.3	411.6	10579.3	2.22972	154.729
56	3.1623	10613.8	480.889	10624.7	2.59418	157.579
57	2.5119	10666.8	531.602	10680	2.85309	160.664
58	1.9953	10726.6	665.924	10747.2	3.55246	163.729
59	1.5849	10805.6	701.884	10828.4	3.71646	166.869
60	1.2589	10794.4	770.845	10821.8	4.08466	169.934
61	1	10890.1	1012.58	10937.1	5.3122	175.429
62	0.79433	10982.5	1189.57	11046.7	6.18192	178.764
63	0.63096	11079.4	1382.27	11165.3	7.11149	182.454
64	0.50119	11182.6	1638.08	11301.9	8.33374	186.734
65	0.39811	11267.9	1930.06	11432	9.71979	191.419
66	0.31623	11392.2	2317.54	11625.5	11.4989	196.349
67	0.25119	11589.6	2766.26	11915.2	13.4244	202.235
68	0.19953	11706.5	3286.46	12159	15.6815	208.88
69	0.15849	11875.2	3914.11	12503.6	18.2424	216.585
70	0.12589	12142.4	4740.54	13035	21.3263	225.525
71	0.1	12423	5555.05	13608.4	24.0923	235.975