File: data/20210121/Z_p37_1.txt
Index	Frequency (Hz)	Z' (Ω)	-Z'' (Ω)	Z (Ω)	-Phase (°)	Time (s)
1	1000000	4045.33	4569.27	6102.7	48.4804	23.1122
2	794330	4996.59	4299.29	6591.64	40.7102	25.0973
3	630960	5950.08	4241.29	7306.99	35.4817	26.8523
4	501190	6938.64	4149.43	8084.71	30.8802	28.6923
5	398110	8055.38	4060.2	9020.77	26.7498	34.2124
6	316230	8792.96	3871.68	9607.6	23.7647	35.8825
7	251190	9313.27	3449.21	9931.46	20.3224	41.4226
8	199530	9914.39	3194.29	10416.3	17.8583	43.2076
9	158490	10433.5	2915.8	10833.3	15.6138	44.9976
10	125890	10866.4	2624.84	11178.9	13.5799	46.7627
11	100000	11231	2346.03	11473.4	11.7988	48.5227
12	79433	11535	2078.47	11720.8	10.2144	50.2127
13	63096	11781.8	1833.63	11923.6	8.84609	51.7328
14	50119	12008.4	1611.26	12116	7.64222	53.1678
15	39811	12186.7	1402.94	12267.2	6.56701	54.7828
16	31623	12323.5	1221.28	12383.9	5.65962	56.6728
17	25119	12442.4	1072.56	12488.5	4.92685	58.4929
18	19953	12547.2	954.992	12583.5	4.35252	60.3829
19	15849	12640.5	848.644	12669	3.84089	62.1729
20	12589	12730.6	755.429	12753	3.39593	63.883
21	10000	12804.3	666.328	12821.6	2.97895	66.733
22	7943.3	12878.9	603.798	12893.1	2.68422	68.2831
23	6309.6	12941.3	549.109	12953	2.42964	69.9781
24	5011.9	13006	504.208	13015.8	2.22008	72.9331
25	3981.1	13055.2	465.781	13063.5	2.04333	75.3232
26	3162.3	13109.7	431.901	13116.8	1.88693	78.9483
27	2511.9	13159.7	403.472	13165.8	1.75612	80.9383
28	1995.3	13208.1	379.05	13213.6	1.64384	82.6133
29	1584.9	13248.3	358.076	13253.2	1.54821	84.2084
30	1258.9	13293.8	339.869	13298.2	1.4645	85.6834
31	1000	13340.1	324.67	13344	1.39419	87.5734
32	794.33	13384.1	310.859	13387.7	1.33051	89.7385
33	630.96	13424	299.169	13427.4	1.27668	91.5985
34	501.19	13459.2	289.226	13462.3	1.23105	93.3785
35	398.11	13495.8	280.777	13498.7	1.19186	95.4086
36	316.23	13526.3	275.24	13529.1	1.16572	97.1536
37	251.19	13568.9	272.296	13571.7	1.14964	99.7186
38	199.53	13595.1	270.786	13597.8	1.14106	103.219
39	158.49	13636.1	272.461	13638.9	1.14466	105.694
40	125.89	13664.9	275.792	13667.7	1.15621	108.509
41	100	13692.9	281.661	13695.8	1.1784	110.499
42	79.433	13728.7	289.877	13731.7	1.2096	112.369
43	63.096	13768.9	303.697	13772.3	1.26355	114.149
44	50.119	13696.8	420.993	13703.2	1.76053	147
45	39.811	13811.8	338.169	13815.9	1.40256	158.665
46	31.623	13845.1	356.805	13849.7	1.47626	162.715
47	25.119	13891.1	386.724	13896.5	1.59468	164.785
48	19.953	13954.7	421.152	13961.1	1.72866	167.03
49	15.849	13993.3	481.092	14001.6	1.96906	169.25
50	12.589	14058.9	512.32	14068.2	2.08699	171.53
51	10	14110.6	582.327	14122.7	2.36318	174.23
52	7.9433	14160.7	640.639	14175.2	2.59032	177.175
53	6.3096	14238.2	704.326	14255.6	2.83195	180.14
54	5.0119	14301.2	803.231	14323.7	3.21465	183.035
55	3.9811	14368.8	914.985	14397.9	3.6436	185.73
56	3.1623	14450.6	1045.8	14488.4	4.13932	188.5
57	2.5119	14553	1224.95	14604.4	4.81137	191.28
58	1.9953	14753.1	1279.28	14808.5	4.95584	194.2
59	1.5849	14727.2	1538.37	14807.3	5.96336	197.25
60	1.2589	14820.3	1797.41	14928.9	6.91506	200.421
61	1	15031.6	2238.83	15197.4	8.47144	205.966
62	0.79433	15211.5	2637.28	15438.4	9.83586	209.336
63	0.63096	15414.5	3113.47	15725.8	11.4192	213.231
64	0.50119	15601.6	3671.01	16027.7	13.2407	217.516
65	0.39811	15885.6	4423.85	16490.1	15.5615	222.116
66	0.31623	16177	5277.89	17016.3	18.0693	227.346
67	0.25119	16563.6	6251.15	17703.9	20.6767	233.256
68	0.19953	17039.2	7585.9	18651.5	23.9988	239.821
69	0.15849	17400.7	9028.97	19603.7	27.4241	248.061
70	0.12589	18099	10875.9	21115.4	31.0023	257.027
71	0.1	18886.9	12732.3	22777.7	33.9852	267.497