File: data/20210121/Z_p38_1.txt
Index	Frequency (Hz)	Z' (Ω)	-Z'' (Ω)	Z (Ω)	-Phase (°)	Time (s)
1	1000000	3868.43	4044.76	5596.87	46.2765	24.0863
2	794330	4663.69	3786.56	6007.34	39.074	25.9363
3	630960	5498.36	3701.67	6628.3	33.9497	28.3563
4	501190	6298.96	3624.68	7267.4	29.9179	30.5564
5	398110	7253.72	3523.42	8064.18	25.9077	38.1515
6	316230	7866.59	3309.7	8534.48	22.8179	41.6166
7	251190	8340.07	2992.46	8860.68	19.7383	48.8967
8	199530	8870.41	2774.6	9294.23	17.3693	50.6768
9	158490	9317.76	2526.94	9654.33	15.1734	52.5618
10	125890	9699.14	2281.45	9963.86	13.2366	57.0169
11	100000	10019	2035.47	10223.7	11.484	58.8969
12	79433	10288	1807.46	10445.6	9.96439	60.722
13	63096	10504.3	1594.08	10624.6	8.62906	62.492
14	50119	10694.8	1403.02	10786.5	7.47375	64.097
15	39811	10849.5	1223.24	10918.2	6.43272	65.877
16	31623	10962.2	1061.78	11013.5	5.53234	68.2421
17	25119	11076.4	941.053	11116.3	4.85618	70.2771
18	19953	11169.3	832.755	11200.3	4.26393	72.5822
19	15849	11242.4	738.429	11266.6	3.75794	74.5972
20	12589	11320.4	659.186	11339.6	3.33255	76.3222
21	10000	11379.6	582.311	11394.5	2.92934	79.7673
22	7943.3	11448.7	527.464	11460.9	2.63786	81.9123
23	6309.6	11507.4	481.243	11517.4	2.39474	84.0324
24	5011.9	11556.7	440.782	11565.1	2.18426	89.1925
25	3981.1	11602.9	405.548	11609.9	2.00181	91.1325
26	3162.3	11654.9	374.944	11660.9	1.84261	92.9425
27	2511.9	11694.7	349.06	11699.9	1.70965	94.7526
28	1995.3	11737.6	326.141	11742.1	1.59161	96.5926
29	1584.9	11776.6	305.444	11780.6	1.48572	98.3326
30	1258.9	11816.9	286.942	11820.4	1.39101	100.013
31	1000	11856.9	270.582	11860	1.3073	102.048
32	794.33	11889.1	255.285	11891.8	1.23008	103.848
33	630.96	11923.7	241.273	11926.2	1.15921	105.308
34	501.19	11955.8	229.398	11958	1.09921	106.998
35	398.11	11984.9	217.591	11986.9	1.04012	108.628
36	316.23	12015.5	207.159	12017.3	0.987736	110.198
37	251.19	12042	198.92	12043.6	0.946376	111.908
38	199.53	12070.9	190.87	12072.4	0.905906	113.443
39	158.49	12090.5	184.932	12092	0.876307	115.063
40	125.89	12114.7	179.422	12116	0.848506	116.858
41	100	12137.2	175.569	12138.5	0.828746	118.648
42	79.433	12157.6	172.329	12158.9	0.812085	120.523
43	63.096	12178.3	170.461	12179.5	0.801923	122.253
44	50.119	12148.5	168.268	12149.6	0.793551	150.469
45	39.811	12205.4	174.036	12206.7	0.81692	159.944
46	31.623	12229.7	172.897	12230.9	0.809962	162.174
47	25.119	12236	176.659	12237.3	0.827162	164.649
48	19.953	12247.1	189.955	12248.6	0.888599	167.024
49	15.849	12283.4	206.623	12285.1	0.963704	169.729
50	12.589	12294.2	215.782	12296.1	1.00553	172.174
51	10	12310.8	240.936	12313.2	1.1212	174.939
52	7.9433	12322.5	267.928	12325.4	1.24558	177.619
53	6.3096	12362.5	294.948	12366	1.36672	180.174
54	5.0119	12381	339.264	12385.6	1.56963	183.204
55	3.9811	12413.2	387.495	12419.3	1.78798	186.229
56	3.1623	12438.8	449.625	12446.9	2.07017	189.374
57	2.5119	12433.8	509.579	12444.2	2.34687	192.499
58	1.9953	12498.7	587.844	12512.5	2.69277	196.109
59	1.5849	12431.6	750.636	12454.2	3.4554	199.53
60	1.2589	12517.1	886.478	12548.4	4.05101	203.4
61	1	12637.2	1054.01	12681.1	4.76775	209.48
62	0.79433	12704.6	1259.08	12766.8	5.65979	213.12
63	0.63096	12796.9	1523.85	12887.3	6.79077	217.345
64	0.50119	12850	1843.87	12981.6	8.16577	221.655
65	0.39811	12976.2	2224.32	13165.5	9.72683	226.345
66	0.31623	13074.4	2737.17	13357.8	11.8243	231.77
67	0.25119	13247.7	3283.52	13648.5	13.9206	238.175
68	0.19953	13387.7	3979.79	13966.7	16.5557	244.89
69	0.15849	13622.1	4765.35	14431.6	19.281	252.706
70	0.12589	13888.5	5871.18	15078.5	22.9155	261.736
71	0.1	14302.8	7140.69	15986.3	26.5307	277.116