File: data/20210121/Z_p32_1.txt
Index	Frequency (Hz)	Z' (Ω)	-Z'' (Ω)	Z (Ω)	-Phase (°)	Time (s)
1	1000000	2974.51	8610.4	9109.71	70.9423	37.1985
2	794330	5138.98	9447.08	10754.4	61.4549	40.0435
3	630960	7363.13	10954.8	13199.4	56.0936	43.5086
4	501190	9826.14	12517.5	15913.5	51.8683	46.4937
5	398110	12727.1	15362.8	19949.8	50.3604	56.0738
6	316230	15428.9	16732.8	22760.4	47.3218	58.0589
7	251190	18316.3	17631.3	25423.4	43.9082	64.579
8	199530	21517.9	18692	28502.8	40.9799	66.649
9	158490	24870.5	19509.7	31609.6	38.1125	68.9241
10	125890	28360.3	20118.3	34771.4	35.3511	70.7791
11	100000	31848.6	20405.4	37824.8	32.6477	72.4991
12	79433	35426.4	20503.6	40932	30.0608	74.4742
13	63096	38868.4	20389.1	43891.6	27.68	76.8392
14	50119	42445.7	20050.3	46943	25.2849	80.6043
15	39811	45925.5	19222.2	49786	22.7118	82.8493
16	31623	49052.4	17999.5	52250.6	20.1503	85.1544
17	25119	51804.6	16992.4	54520.2	18.16	87.3444
18	19953	54292.8	16018.8	56606.6	16.4384	89.1844
19	15849	56625	14818.7	58531.9	14.6654	91.4695
20	12589	58681.7	13522.5	60219.6	12.9766	93.4545
21	10000	60669	12489	61941.1	11.6321	96.8196
22	7943.3	62293.8	11444.6	63336.4	10.4103	98.6796
23	6309.6	63748.1	10477.7	64603.4	9.33374	100.465
24	5011.9	65055	9611.53	65761.2	8.40435	102.985
25	3981.1	66172.5	8855.18	66762.4	7.62202	104.92
26	3162.3	67245.3	8205.64	67744.1	6.95715	106.85
27	2511.9	68165.3	7645.26	68592.7	6.39942	108.68
28	1995.3	69095	7177.67	69466.8	5.93068	110.47
29	1584.9	69951.5	6792.63	70280.5	5.54631	112.4
30	1258.9	70768.1	6482.6	71064.4	5.23388	114.565
31	1000	71581.5	6237.71	71852.8	4.98025	116.835
32	794.33	72366.6	6041.39	72618.3	4.77217	118.895
33	630.96	73142.4	5899.48	73380	4.61135	120.995
34	501.19	73925.8	5794.18	74152.6	4.48158	123
35	398.11	74654.9	5728.96	74874.4	4.38824	125.31
36	316.23	75409.3	5694.71	75624.1	4.31862	127.295
37	251.19	76192.1	5691.49	76404.4	4.27202	129.135
38	199.53	76966.8	5709.22	77178.2	4.2423	131.095
39	158.49	77713.1	5760.21	77926.3	4.2391	133.47
40	125.89	78511	5804.26	78725.2	4.22815	135.59
41	100	79340.3	5886.72	79558.4	4.24333	137.615
42	79.433	80120.8	5991.61	80344.6	4.27674	139.59
43	63.096	80898.5	6149.87	81131.9	4.34724	142.025
44	50.119	81742.7	6210.91	81978.3	4.34505	144.13
45	39.811	82609.2	6468.38	82862.1	4.47718	159.491
46	31.623	83485	6679.93	83751.9	4.57469	164.656
47	25.119	84348.7	6958.64	84635.2	4.71614	167.746
48	19.953	85270.3	7296.88	85581.9	4.89109	170.376
49	15.849	86196	7695.72	86538.9	5.10193	173.101
50	12.589	87161.5	8114.39	87538.4	5.31868	176.096
51	10	88188.6	8657.35	88612.5	5.60668	179.456
52	7.9433	89208.4	9269.8	89688.8	5.93241	182.251
53	6.3096	90329	10008.5	90881.8	6.32263	185.176
54	5.0119	91482.7	10866.5	92125.8	6.77395	188.106
55	3.9811	92704.5	11905.2	93465.9	7.31791	191.131
56	3.1623	94015.5	13171.6	94933.6	7.97524	194.541
57	2.5119	95406.7	14600.2	96517.4	8.70053	197.766
58	1.9953	96827.5	16372	98201.8	9.59702	200.997
59	1.5849	98537.7	18537.8	100266	10.6544	204.647
60	1.2589	100370	20932.7	102530	11.7805	208.197
61	1	102412	23947.1	105175	13.161	214.507
62	0.79433	104867	27452.9	108401	14.6701	217.997
63	0.63096	107481	31685.8	112054	16.4257	222.342
64	0.50119	110395	36264.1	116199	18.1851	226.767
65	0.39811	113684	42262.6	121286	20.3929	231.607
66	0.31623	117850	48813.7	127560	22.4994	237.092
67	0.25119	122282	56634.4	134760	24.8511	243.572
68	0.19953	128282	66777.9	144622	27.4996	250.612
69	0.15849	134255	77583.2	155060	30.0227	258.578
70	0.12589	142177	90326.4	168443	32.4282	267.673
71	0.1	150336	104005	182805	34.6761	282.678