File: data/20210121/Z_p34_1.txt
Index	Frequency (Hz)	Z' (Ω)	-Z'' (Ω)	Z (Ω)	-Phase (°)	Time (s)
1	1000000	3967.23	4668.55	6126.52	49.6429	27.4473
2	794330	4939.12	4471.86	6662.76	42.1576	31.4974
3	630960	5953.71	4441.16	7427.69	36.7211	33.7874
4	501190	6940.39	4411.02	8223.51	32.4383	35.9075
5	398110	8140.29	4365.76	9237.11	28.2053	42.2726
6	316230	8975.07	4131.64	9880.4	24.7188	43.8376
7	251190	9549.91	3790.11	10274.5	21.6468	51.5727
8	199530	10221	3540.33	10816.8	19.105	53.5928
9	158490	10805.7	3253.63	11284.9	16.7572	55.6378
10	125890	11306.4	2952.47	11685.5	14.6351	57.6229
11	100000	11714.1	2648.19	12009.7	12.7386	59.5379
12	79433	12069	2360.34	12297.7	11.0656	61.2129
13	63096	12373.1	2088.37	12548.1	9.58027	62.773
14	50119	12610.7	1837.09	12743.8	8.28838	64.673
15	39811	12827	1617.25	12928.5	7.18607	66.503
16	31623	12990.6	1412.26	13067.2	6.20449	68.1181
17	25119	13133.6	1241.16	13192.1	5.39856	71.7931
18	19953	13263.4	1104.02	13309.3	4.7582	73.5732
19	15849	13370.9	978.908	13406.7	4.18725	75.0482
20	12589	13463.1	870.378	13491.2	3.69899	76.7482
21	10000	13561	770.035	13582.9	3.24993	80.2283
22	7943.3	13643.5	695.111	13661.2	2.91659	81.8283
23	6309.6	13717.6	631.316	13732.1	2.63504	83.5233
24	5011.9	13786.9	576.067	13798.9	2.39263	85.6134
25	3981.1	13854.4	528.424	13864.5	2.18427	87.2234
26	3162.3	13909.7	487.68	13918.3	2.00799	89.0184
27	2511.9	13961.5	451.629	13968.8	1.85277	90.8185
28	1995.3	14018.9	421.449	14025.2	1.72196	92.5685
29	1584.9	14067.5	394.83	14073	1.60769	94.2885
30	1258.9	14117.5	370.807	14122.4	1.50457	95.9486
31	1000	14165.1	349.04	14169.4	1.41153	97.5536
32	794.33	14209.6	329.761	14213.4	1.32942	99.2586
33	630.96	14248	312.118	14251.4	1.25493	100.689
34	501.19	14285.8	297.43	14288.9	1.19273	102.344
35	398.11	14330.7	284.05	14333.5	1.13551	103.964
36	316.23	14366.5	272.492	14369	1.08661	105.454
37	251.19	14399.6	262.255	14402	1.04339	106.934
38	199.53	14438.9	254.234	14441.2	1.00873	108.414
39	158.49	14473.4	248.883	14475.5	0.985154	110.124
40	125.89	14492.1	244.042	14494.2	0.964747	111.899
41	100	14525.1	241.573	14527.1	0.95282	113.704
42	79.433	14548.2	239.467	14550.1	0.943022	115.684
43	63.096	14583.6	241.217	14585.6	0.947598	117.484
44	50.119	14519.3	262.238	14521.7	1.03472	145.414
45	39.811	14599.2	242.752	14601.2	0.952613	155.04
46	31.623	14636.6	258.145	14638.9	1.01042	158.07
47	25.119	14661.7	268.022	14664.1	1.04728	160.025
48	19.953	14683	284.428	14685.8	1.10975	161.99
49	15.849	14718.2	312.521	14721.5	1.21642	165.47
50	12.589	14740.7	326.534	14744.3	1.269	167.47
51	10	14777.1	364.42	14781.6	1.41269	170.075
52	7.9433	14800.3	404.126	14805.9	1.56408	172.715
53	6.3096	14848.3	457.049	14855.4	1.76307	175.315
54	5.0119	14888.4	508.857	14897.1	1.9575	177.75
55	3.9811	14937	578.539	14948.2	2.21807	180.31
56	3.1623	14974.6	671.756	14989.7	2.56854	182.955
57	2.5119	15067.8	806.936	15089.4	3.06546	185.65
58	1.9953	15135.3	865.328	15160	3.2722	188.46
59	1.5849	15151.2	1335.98	15210	5.03913	191.375
60	1.2589	15199.8	1204.4	15247.4	4.53056	194.455
61	1	15333.4	1471.57	15403.8	5.48198	199.79
62	0.79433	15456.5	1752.39	15555.6	6.46831	203.206
63	0.63096	15556.8	2052.6	15691.6	7.51634	206.696
64	0.50119	15700.6	2448.01	15890.3	8.86211	213.276
65	0.39811	15848.7	2945.21	16120	10.5274	220.026
66	0.31623	16044.8	3537.96	16430.2	12.435	227.061
67	0.25119	16193.4	4296.16	16753.6	14.8585	232.946
68	0.19953	16481	5217.08	17287	17.5653	240.776
69	0.15849	16765.2	6244.84	17890.5	20.4297	251.121
70	0.12589	17230.7	7537.36	18807.1	23.6264	260.047
71	0.1	17815.6	8997.28	19958.6	26.7948	271.007