File: data/20210121/Z_p33_1.txt
Index	Frequency (Hz)	Z' (Ω)	-Z'' (Ω)	Z (Ω)	-Phase (°)	Time (s)
1	1000000	3658.91	4160.9	5540.82	48.673	30.1434
2	794330	4514.42	3992.26	6026.45	41.4875	32.4884
3	630960	5408.6	3983.8	6717.41	36.3742	35.5735
4	501190	6281.35	3942.6	7416.16	32.1151	38.0685
5	398110	7327	3847.79	8275.9	27.7063	45.9237
6	316230	8079.16	3623.57	8854.55	24.1566	47.8687
7	251190	8558.13	3286.26	9167.4	21.0064	54.7188
8	199530	9135.59	3043.68	9629.28	18.4264	57.9939
9	158490	9629.46	2774.99	10021.3	16.0758	60.799
10	125890	10044.3	2495.74	10349.7	13.9539	63.384
11	100000	10385	2223.24	10620.3	12.0837	65.779
12	79433	10675.4	1968.43	10855.4	10.4473	68.2541
13	63096	10915.2	1731.85	11051.8	9.01563	70.6891
14	50119	11118.4	1518.64	11221.6	7.7778	72.8142
15	39811	11274.4	1320.13	11351.4	6.67842	75.4942
16	31623	11405.5	1147.98	11463.1	5.74757	77.7093
17	25119	11506.3	1008.61	11550.4	5.00962	79.8893
18	19953	11609.9	889.549	11643.9	4.38143	82.2744
19	15849	11691.9	789.016	11718.5	3.8607	84.4344
20	12589	11771.1	701.357	11792	3.40983	86.5844
21	10000	11842.2	618.032	11858.3	2.9875	90.2095
22	7943.3	11908.1	558.883	11921.2	2.68709	92.4345
23	6309.6	11965.8	508.362	11976.6	2.43272	94.2296
24	5011.9	12020.3	464.973	12029.2	2.21524	96.3196
25	3981.1	12071.1	427.399	12078.6	2.02782	98.0746
26	3162.3	12117.7	396.031	12124.1	1.87188	99.7697
27	2511.9	12170.3	369.893	12175.9	1.74086	101.695
28	1995.3	12202.8	345.915	12207.7	1.62375	103.775
29	1584.9	12249.7	325.331	12254	1.52132	105.525
30	1258.9	12288.7	307.733	12292.5	1.4345	107.335
31	1000	12324.6	291.384	12328	1.35437	109.1
32	794.33	12361	276.774	12364.1	1.28269	110.865
33	630.96	12398	263.916	12400.9	1.21947	112.545
34	501.19	12430.6	253.191	12433.1	1.16686	115.005
35	398.11	12464.9	243.608	12467.3	1.11962	117
36	316.23	12499.8	234.929	12502	1.07672	118.925
37	251.19	12522.3	228.07	12524.4	1.04342	120.705
38	199.53	12560.4	224.311	12562.4	1.02312	122.45
39	158.49	12584	220.772	12585.9	1.00509	124.94
40	125.89	12612.2	218.816	12614.1	0.993953	127.28
41	100	12642.1	218.638	12643.9	0.990805	128.915
42	79.433	12668	219.102	12669.9	0.990871	130.585
43	63.096	12690.7	221.797	12692.7	1.00126	132.38
44	50.119	12587.9	180.079	12589.2	0.819605	160.616
45	39.811	12723.7	229.271	12725.8	1.03231	170.236
46	31.623	12740.8	242.052	12743.1	1.08838	172.321
47	25.119	12769.6	256.418	12772.2	1.15036	174.246
48	19.953	12799.7	267.768	12802.5	1.19844	176.701
49	15.849	12831.1	289.696	12834.4	1.29338	178.901
50	12.589	12862.6	312.704	12866.4	1.39265	181.331
51	10	12881	342.029	12885.5	1.52102	184.476
52	7.9433	12917.6	375.846	12923.1	1.66659	187.636
53	6.3096	12954	410.842	12960.5	1.81655	190.686
54	5.0119	12994.7	466.922	13003.1	2.05784	194.496
55	3.9811	13032.5	526.642	13043.2	2.31405	197.581
56	3.1623	13081.1	602.509	13095	2.63715	200.087
57	2.5119	13096.4	691.018	13114.6	3.02035	203.747
58	1.9953	13195	916.012	13226.8	3.97116	207.087
59	1.5849	13272.3	1000.66	13310	4.31161	212.037
60	1.2589	13321.8	1073.5	13365	4.60704	215.442
61	1	13411.5	1307.42	13475.1	5.56789	223.497
62	0.79433	13520.3	1540.81	13607.8	6.50155	227.007
63	0.63096	13619.4	1828.23	13741.6	7.64548	231.037
64	0.50119	13719.6	2159.16	13888.5	8.94371	236.057
65	0.39811	13882.4	2591.57	14122.2	10.5743	240.797
66	0.31623	14022.4	3037.38	14347.6	12.222	250.882
67	0.25119	14157.1	3689.92	14630	14.6087	256.718
68	0.19953	14485.7	4492.48	15166.4	17.2303	263.833
69	0.15849	14623.1	5325.68	15562.7	20.0115	272.608
70	0.12589	14899.1	6404.03	16217.1	23.2593	282.098
71	0.1	15384.9	7867.2	17279.7	27.0833	292.523