File: data/20210121/Z_p36_1.txt
Index	Frequency (Hz)	Z' (Ω)	-Z'' (Ω)	Z (Ω)	-Phase (°)	Time (s)
1	1000000	4027.44	3971.35	5656.14	44.5982	20.6492
2	794330	4793.97	3675.45	6040.79	37.4767	22.4192
3	630960	5597.91	3550.48	6628.91	32.385	24.5242
4	501190	6359.19	3392.56	7207.55	28.0795	26.3093
5	398110	7238.73	3250.93	7935.22	24.185	31.3044
6	316230	7863.05	3048.96	8433.48	21.1942	32.9994
7	251190	8208.69	2690.15	8638.26	18.145	38.7095
8	199530	8679.55	2469.97	9024.15	15.885	41.1846
9	158490	9062.72	2230.32	9333.12	13.8256	43.3946
10	125890	9389.82	1991.67	9598.72	11.9755	45.5546
11	100000	9652.68	1761.53	9812.1	10.3422	47.2597
12	79433	9877.31	1549.83	9998.16	8.91744	49.0147
13	63096	10054	1356.42	10145.1	7.68361	50.6547
14	50119	10204.5	1180.21	10272.6	6.59726	52.4598
15	39811	10332	1024.01	10382.6	5.66014	54.2598
16	31623	10424.6	886.042	10462.2	4.85818	56.0198
17	25119	10505.7	777.094	10534.4	4.2304	57.6649
18	19953	10577.3	686.106	10599.5	3.71134	59.4799
19	15849	10646.3	606.678	10663.6	3.26145	61.2899
20	12589	10702.6	538.559	10716.2	2.88071	63.005
21	10000	10753.8	473.744	10764.2	2.52247	66.79
22	7943.3	10799	433.707	10807.7	2.29986	72.5001
23	6309.6	10838.8	393.356	10845.9	2.07844	74.2052
24	5011.9	10884.7	360.174	10890.7	1.89522	75.9552
25	3981.1	10919.1	332.152	10924.2	1.74236	77.7352
26	3162.3	10951.5	310.315	10955.8	1.62307	79.4353
27	2511.9	10984	288.896	10987.8	1.50662	81.0853
28	1995.3	11017.9	271.346	11021.3	1.41078	82.6053
29	1584.9	11051.2	257.258	11054.2	1.33354	84.2654
30	1258.9	11084.3	241.854	11086.9	1.24997	85.7704
31	1000	11109.5	229.546	11111.9	1.18369	87.5654
32	794.33	11147.1	219.109	11149.3	1.12607	89.8155
33	630.96	11171.6	210.568	11173.6	1.07981	91.7155
34	501.19	11199.2	201.676	11201	1.03168	93.4705
35	398.11	11228.6	191.448	11230.2	0.976799	95.1306
36	316.23	11248.4	186.89	11249.9	0.951874	97.2556
37	251.19	11274.2	181.016	11275.6	0.91985	99.2706
38	199.53	11301.7	178.363	11303.1	0.904164	101.786
39	158.49	11323.1	176.245	11324.5	0.891743	103.871
40	125.89	11339.7	173.871	11341	0.878448	107.701
41	100	11364.2	176.777	11365.6	0.891198	110.236
42	79.433	11389.8	180.967	11391.3	0.910265	112.041
43	63.096	11403.4	186.641	11404.9	0.937683	114.461
44	50.119	11481.2	185.548	11482.7	0.925873	117.006
45	39.811	11449	194.254	11450.6	0.972044	126.911
46	31.623	11461.9	214.661	11463.9	1.07292	131.091
47	25.119	11492.4	222.998	11494.6	1.11163	133.106
48	19.953	11509.2	250.523	11511.9	1.24697	135.696
49	15.849	11553	274.687	11556.3	1.36202	138.231
50	12.589	11564.6	305.646	11568.7	1.51394	140.656
51	10	11600	331.939	11604.8	1.63909	143.056
52	7.9433	11630.2	368.53	11636	1.81494	145.661
53	6.3096	11658.9	426.649	11666.7	2.09577	148.162
54	5.0119	11688.3	484.517	11698.4	2.37373	150.697
55	3.9811	11729.4	554.499	11742.5	2.70661	153.392
56	3.1623	11773.7	643.065	11791.3	3.12631	156.137
57	2.5119	11809	742.065	11832.3	3.59569	158.907
58	1.9953	11847.9	905.134	11882.5	4.36868	161.722
59	1.5849	11894.1	1026.8	11938.4	4.93402	164.562
60	1.2589	11995.6	1194.55	12054.9	5.68692	167.522
61	1	12098	1460.84	12185.8	6.88519	175.297
62	0.79433	12197.2	1744.49	12321.3	8.13947	178.962
63	0.63096	12310.8	2062.32	12482.3	9.50998	182.707
64	0.50119	12387.7	2496.28	12636.7	11.3932	187.027
65	0.39811	12552.5	3000.75	12906.2	13.4446	191.887
66	0.31623	12706.9	3643.94	13219.1	16.0012	196.997
67	0.25119	12834.2	4343.23	13549.2	18.6963	202.843
68	0.19953	13052.6	5387.15	14120.6	22.4272	210.063
69	0.15849	13302	6551.18	14827.7	26.2201	217.563
70	0.12589	13693.3	7893.37	15805.5	29.9608	226.373
71	0.1	13845.9	9487.92	16784.8	34.421	236.698