File: data/20210121/Z_p31_1.txt
Index	Frequency (Hz)	Z' (Ω)	-Z'' (Ω)	Z (Ω)	-Phase (°)	Time (s)
1	1000000	3044.18	7400.27	8001.94	67.6397	25.1733
2	794330	4870.43	8077.17	9431.96	58.9106	27.4383
3	630960	6649.95	9047.7	11228.7	53.6846	30.2534
4	501190	8664.12	10186.3	13372.6	49.6165	32.2784
5	398110	11299	12095.1	16551.7	46.9489	40.5985
6	316230	13766.8	12698	18728.7	42.6875	42.2086
7	251190	15849.9	13113.3	20571.3	39.6023	48.5237
8	199530	18326.5	13516.8	22772.1	36.4108	50.3737
9	158490	20861.1	13684.1	24948.7	33.2633	52.1438
10	125890	23348.4	13619.9	27030.5	30.2564	56.0088
11	100000	25738.9	13331.5	28986.6	27.382	58.1039
12	79433	28060.1	12895.7	30881.5	24.6824	59.7239
13	63096	30178.6	12227.9	32561.7	22.057	61.5689
14	50119	32129.3	11496.9	34124.3	19.6888	63.574
15	39811	33945.2	10619.9	35567.7	17.3724	65.514
16	31623	35473.6	9639.4	36759.9	15.2022	67.289
17	25119	36809.3	8833.24	37854.3	13.4943	69.1591
18	19953	37894.3	8052.45	38740.4	11.9968	70.9791
19	15849	38947.8	7291.87	39624.6	10.6042	72.6041
20	12589	39806.1	6613.81	40351.8	9.43355	74.1892
21	10000	40621.8	6000.59	41062.6	8.40288	77.0192
22	7943.3	41316.6	5501.92	41681.4	7.58516	78.4792
23	6309.6	41944.6	5079.01	42251	6.90425	80.2393
24	5011.9	42523.5	4723.65	42785	6.33862	81.9693
25	3981.1	43076.3	4431.14	43303.7	5.87319	84.0593
26	3162.3	43573.7	4197.71	43775.5	5.50265	85.9644
27	2511.9	44073.5	4009.48	44255.5	5.19803	87.6444
28	1995.3	44572.5	3867.9	44740	4.95957	90.3995
29	1584.9	45030.8	3762.6	45187.7	4.77632	112.465
30	1258.9	45525.4	3688.74	45674.6	4.63233	114.1
31	1000	45972	3647.07	46116.4	4.53591	116.995
32	794.33	46458.9	3627.85	46600.4	4.465	118.765
33	630.96	46966.5	3626.85	47106.4	4.41573	120.34
34	501.19	47465.3	3644.59	47605.1	4.3908	122.055
35	398.11	47967.2	3674.66	48107.8	4.38075	123.655
36	316.23	48483.6	3718.37	48626	4.38562	125.23
37	251.19	49001.3	3770.76	49146.2	4.40036	126.895
38	199.53	49536.8	3831.41	49684.8	4.42272	128.505
39	158.49	50087.5	3905.02	50239.5	4.45799	130.36
40	125.89	50623.5	3984.29	50780.1	4.50015	133.825
41	100	51167.4	4069.89	51329	4.54777	137.45
42	79.433	51733.6	4165.6	51901	4.60354	139.3
43	63.096	52307.6	4289.62	52483.2	4.6882	141.115
44	50.119	52951.4	4423.95	53135.9	4.77582	142.88
45	39.811	53533.6	4531.16	53725	4.83806	152.266
46	31.623	54170.7	4675.97	54372.1	4.9335	154.071
47	25.119	54813.8	4837.67	55026.9	5.04365	156.081
48	19.953	55492.2	5046.04	55721.2	5.19575	158.291
49	15.849	56199	5258.68	56444.5	5.34574	160.541
50	12.589	56906.6	5490.77	57170.9	5.51126	162.896
51	10	57634.2	5762.64	57921.6	5.70983	165.646
52	7.9433	58426.4	6065.69	58740.4	5.92708	168.526
53	6.3096	59195.4	6424.33	59543	6.19393	171.191
54	5.0119	59985.3	6823.79	60372.2	6.48994	174.191
55	3.9811	60863.6	7295.01	61299.2	6.83477	176.981
56	3.1623	61738.3	7834.17	62233.3	7.2318	180.016
57	2.5119	62651.6	8494.15	63224.8	7.72094	183.111
58	1.9953	63664.6	9228.24	64330	8.24763	185.946
59	1.5849	64739	10198.5	65537.3	8.95239	188.846
60	1.2589	65796.9	11216.9	66746.2	9.67462	191.901
61	1	67463.4	12592	68628.4	10.5725	197.621
62	0.79433	68843.3	14079.3	70268.3	11.5583	201.502
63	0.63096	69829.4	15694	71571.3	12.6666	205.917
64	0.50119	71810.6	18027.6	74038.9	14.0925	210.547
65	0.39811	73423.1	20507.2	76233.2	15.6052	216.072
66	0.31623	75387	23425.9	78942.9	17.2622	221.517
67	0.25119	77507.7	27330.8	82185.2	19.4237	227.357
68	0.19953	79941.3	30976.8	85733.1	21.181	234.312
69	0.15849	83455.4	36286.8	91002.9	23.4996	242.252
70	0.12589	85966.9	42144.1	95741.5	26.1158	252.202
71	0.1	89271.3	48976.2	101824	28.7502	266.353