File: data/20210121/Z_p39_1.txt
Index	Frequency (Hz)	Z' (Ω)	-Z'' (Ω)	Z (Ω)	-Phase (°)	Time (s)
1	1000000	3040.99	2789.36	4126.51	42.5287	30.1104
2	794330	3544.78	2658.68	4431.03	36.8708	32.9754
3	630960	4090.22	2598.28	4845.72	32.4255	36.5955
4	501190	4624.22	2538.82	5275.32	28.7679	40.8556
5	398110	5212.26	2417.44	5745.58	24.8818	52.7108
6	316230	5662.58	2265.92	6099.11	21.8091	55.1459
7	251190	5962.1	2035.8	6300.09	18.8528	62.356
8	199530	6320.25	1875.62	6592.69	16.529	65.356
9	158490	6626.01	1700.02	6840.62	14.3898	68.2311
10	125890	6875.23	1518.87	7041	12.4577	71.5462
11	100000	7082.25	1343.01	7208.46	10.7375	74.0712
12	79433	7247.21	1179.14	7342.51	9.24118	77.9663
13	63096	7386.44	1031.5	7458.12	7.94979	81.0713
14	50119	7496.62	896.745	7550.07	6.8213	83.7314
15	39811	7589.83	778.619	7629.66	5.85732	86.5414
16	31623	7665.94	676.164	7695.7	5.04065	88.8365
17	25119	7725.71	597.767	7748.8	4.42438	90.7815
18	19953	7781.19	527.969	7799.08	3.88168	92.6665
19	15849	7831.21	470.562	7845.33	3.43866	94.4416
20	12589	7877.43	423.152	7888.79	3.0748	96.2566
21	10000	7915.09	383.94	7924.4	2.77709	100.477
22	7943.3	7955.13	351.152	7962.88	2.52749	102.577
23	6309.6	7989.16	324.408	7995.75	2.32528	104.792
24	5011.9	8026.62	303.39	8032.35	2.16463	108.137
25	3981.1	8060.04	285.681	8065.1	2.02995	109.937
26	3162.3	8091.21	271.561	8095.77	1.92227	111.772
27	2511.9	8126.99	259.285	8131.12	1.82736	113.597
28	1995.3	8154.58	248.373	8158.37	1.74458	115.407
29	1584.9	8186.43	242.181	8190.01	1.6945	117.037
30	1258.9	8220.32	235.259	8223.68	1.63931	118.877
31	1000	8247.59	228.794	8250.76	1.58902	120.362
32	794.33	8273.71	223.022	8276.72	1.54406	122.447
33	630.96	8312.32	218.842	8315.2	1.5081	124.877
34	501.19	8339.98	214.914	8342.75	1.47613	126.607
35	398.11	8368.31	211.016	8370.97	1.44447	128.362
36	316.23	8397.39	210.918	8400.04	1.4388	129.822
37	251.19	8430.13	211.771	8432.79	1.43901	131.512
38	199.53	8455.46	212.133	8458.12	1.43715	132.942
39	158.49	8482.69	215.031	8485.42	1.4521	134.487
40	125.89	8509.65	220.623	8512.51	1.48513	136.007
41	100	8539.52	227.838	8542.56	1.52832	137.502
42	79.433	8567.06	235.607	8570.3	1.57532	139.092
43	63.096	8591.95	249.362	8595.57	1.66242	140.857
44	50.119	8712.15	285.207	8716.81	1.875	142.612
45	39.811	8656.46	278.714	8660.94	1.84413	151.908
46	31.623	8691.15	299.19	8696.3	1.97161	153.858
47	25.119	8730.39	323.381	8736.38	2.12131	155.888
48	19.953	8765.52	353.789	8772.66	2.31129	158.053
49	15.849	8812.57	386.67	8821.05	2.51236	160.268
50	12.589	8858.94	419.615	8868.87	2.71186	162.593
51	10	8911.55	460.616	8923.45	2.95884	165.048
52	7.9433	8969.73	508.382	8984.12	3.24391	167.448
53	6.3096	9031.77	563.264	9049.32	3.56862	170.178
54	5.0119	9091.04	612.487	9111.65	3.85434	172.958
55	3.9811	9165.35	689.362	9191.24	4.30134	175.938
56	3.1623	9233.94	770.834	9266.05	4.77189	178.733
57	2.5119	9332.52	867.313	9372.73	5.30951	181.603
58	1.9953	9429.9	924.639	9475.13	5.60017	184.288
59	1.5849	9504.85	1159.48	9575.31	6.95502	190.343
60	1.2589	9552.74	1293.85	9639.96	7.71337	194.408
61	1	9678.3	1448.01	9786.02	8.50914	199.779
62	0.79433	9802.57	1680.63	9945.6	9.72866	203.084
63	0.63096	9909.26	1949.92	10099.3	11.1323	207.029
64	0.50119	10039.2	2284.7	10295.9	12.8209	211.284
65	0.39811	10161.1	2748.56	10526.3	15.1362	215.909
66	0.31623	10299.7	3287.34	10811.6	17.7015	221.074
67	0.25119	10539.4	3934.78	11249.9	20.4727	227.024
68	0.19953	10704.2	4760.05	11714.9	23.9742	233.529
69	0.15849	10968.6	5732.28	12376.2	27.5919	240.954
70	0.12589	11328.9	6841.53	13234.5	31.1278	249.704
71	0.1	11528	8202.66	14148.4	35.4334	260.2