File: data/20210121/Z_p30_1.txt
Index	Frequency (Hz)	Z' (Ω)	-Z'' (Ω)	Z (Ω)	-Phase (°)	Time (s)
1	1000000	3444.98	8077.77	8781.7	66.9029	26.2033
2	794330	5518.42	8579.9	10201.4	57.2517	28.7083
3	630960	7596.36	9483.99	12151.2	51.3064	30.8484
4	501190	9804.58	10463.3	14339.2	46.8616	33.1384
5	398110	12815	12252.4	17729.8	43.7142	41.8686
6	316230	15090.2	12781.7	19775.9	40.2653	43.8636
7	251190	17382.9	12800.6	21587.5	36.3676	51.7588
8	199530	19777.2	12969.8	23650.6	33.2566	54.8438
9	158490	22142.1	12951.4	25651.7	30.3242	57.4089
10	125890	24416	12709.6	27525.9	27.4989	62.669
11	100000	26535.8	12324.9	29258.4	24.9131	65.289
12	79433	28568.8	11833.8	30922.8	22.5003	67.569
13	63096	30439.8	11254.5	32453.8	20.2909	70.3791
14	50119	32279.8	10536.2	33955.8	18.0768	74.3942
15	39811	33813.5	9897.6	35232.3	16.3154	77.5492
16	31623	35173.8	9086.56	36328.5	14.4847	79.6893
17	25119	36343.1	8468.04	37316.6	13.1161	81.5493
18	19953	37505	7832.77	38314.2	11.7964	83.7693
19	15849	38535.9	7230	39208.3	10.6261	85.5894
20	12589	39520	6652.06	40075.9	9.55455	87.5344
21	10000	40349.9	6111.74	40810.2	8.61304	92.7245
22	7943.3	41139.6	5673.25	41528.9	7.8517	94.2945
23	6309.6	41844.5	5286.29	42177.1	7.20014	96.0646
24	5011.9	42484	4945.83	42771	6.64026	98.1646
25	3981.1	43089.7	4657.63	43340.7	6.16924	100.635
26	3162.3	43813.4	4432.76	44037.1	5.77717	111.38
27	2511.9	44367.8	4227.41	44568.7	5.44277	113.485
28	1995.3	44903.2	4062.86	45086.6	5.17006	115.87
29	1584.9	45421.5	3926.3	45590.9	4.94045	118.375
30	1258.9	45904.5	3820.48	46063.2	4.75758	120.675
31	1000	46427	3743.4	46577.7	4.60977	122.93
32	794.33	46919.4	3683.55	47063.7	4.48897	124.84
33	630.96	47420.3	3642.2	47559.9	4.39209	126.705
34	501.19	47934.1	3616.25	48070.3	4.31434	128.515
35	398.11	48428.5	3597.36	48562	4.24824	131.035
36	316.23	48940.7	3592.57	49072.4	4.19836	133.025
37	251.19	49462	3592.15	49592.3	4.15378	135
38	199.53	49977.8	3604.02	50107.6	4.1246	137.36
39	158.49	50499	3609.18	50627.8	4.088	139.635
40	125.89	50985.3	3616.84	51113.4	4.05771	141.505
41	100	51533.9	3631.4	51661.6	4.03075	143.375
42	79.433	52069.8	3640.76	52197	3.99965	145.11
43	63.096	52599.6	3650.15	52726.1	3.96968	147.031
44	50.119	53134.4	3650.74	53259.7	3.93048	149.166
45	39.811	53714.1	3644.11	53837.6	3.88115	159.096
46	31.623	54236.7	3617.54	54357.2	3.81592	161.121
47	25.119	54794.5	3590.77	54912.1	3.74932	163.351
48	19.953	55335.1	3578.74	55450.7	3.70039	166.286
49	15.849	55892.5	3531.49	56004	3.61535	169.076
50	12.589	56403.2	3475.95	56510.2	3.52649	172.076
51	10	56937.6	3404.07	57039.3	3.42141	175.316
52	7.9433	57439.3	3330.37	57535.8	3.31833	178.496
53	6.3096	57935.9	3257.29	58027.4	3.21791	181.886
54	5.0119	58374	3175.7	58460.3	3.11398	185.771
55	3.9811	58835.3	3088.81	58916.4	3.00522	188.936
56	3.1623	59229.3	3018.27	59306.2	2.91721	192.051
57	2.5119	59602.5	2973.2	59676.6	2.85576	196.176
58	1.9953	60004.9	2948.89	60077.3	2.81349	199.721
59	1.5849	60332.3	2930.08	60403.4	2.78042	203.182
60	1.2589	60683.1	2977.3	60756.1	2.80885	206.757
61	1	61014.7	3042.59	61090.5	2.85478	212.607
62	0.79433	61352.5	3181.99	61435	2.96893	216.707
63	0.63096	61657.5	3369.57	61749.5	3.12809	222.097
64	0.50119	61914.4	3608.17	62019.5	3.33523	226.317
65	0.39811	62206.5	3954.55	62332	3.63748	230.922
66	0.31623	62506.5	4457.43	62665.2	4.07894	236.227
67	0.25119	62793.6	5035.83	62995.2	4.58511	241.862
68	0.19953	63165.3	5893.93	63439.7	5.33081	249.067
69	0.15849	63513.1	6846.36	63881	6.15241	256.828
70	0.12589	64005.1	8041.46	64508.3	7.16099	265.813
71	0.1	64263.5	9467.38	64957.1	8.38061	276.343