File: data/20210121/Z_p40_1.txt
Index	Frequency (Hz)	Z' (Ω)	-Z'' (Ω)	Z (Ω)	-Phase (°)	Time (s)
1	1000000	2947.31	2707.95	4002.45	42.5765	22.8112
2	794330	3470.51	2538.46	4299.79	36.1831	26.9163
3	630960	3988.3	2469.6	4690.99	31.7663	29.1613
4	501190	4491.65	2397.45	5091.44	28.0914	31.8114
5	398110	5039.26	2274.23	5528.68	24.2898	36.7715
6	316230	5449.13	2130.38	5850.77	21.3534	38.2065
7	251190	5722.06	1890.42	6026.25	18.2822	42.9366
8	199530	6059.66	1736.42	6303.54	15.9898	44.5516
9	158490	6335.4	1565.6	6525.98	13.8808	46.2016
10	125890	6564.28	1394.25	6710.72	11.9914	47.7217
11	100000	6748.04	1228.9	6859.02	10.3212	49.6767
12	79433	6901.25	1077.52	6984.86	8.8742	51.4017
13	63096	7023.11	938.99	7085.61	7.61528	53.1218
14	50119	7127.66	814.362	7174.03	6.518	54.6768
15	39811	7208.75	709.432	7243.57	5.62053	56.1568
16	31623	7272.13	614.821	7298.08	4.83256	57.6269
17	25119	7324.26	541.956	7344.29	4.23186	59.1919
18	19953	7376.28	477.702	7391.73	3.70541	60.9169
19	15849	7421.29	426.205	7433.51	3.28689	62.527
20	12589	7460.73	382.537	7470.53	2.93517	64.047
21	10000	7496.96	347.34	7505	2.65266	65.647
22	7943.3	7531.28	318.868	7538.02	2.42441	67.187
23	6309.6	7567.48	294.677	7573.21	2.22997	68.5721
24	5011.9	7598.79	273.975	7603.73	2.06491	70.9471
25	3981.1	7631.4	257.127	7635.73	1.92975	72.5971
26	3162.3	7660.62	245.561	7664.55	1.83599	74.1372
27	2511.9	7688.59	234.043	7692.15	1.74356	75.7172
28	1995.3	7711.69	224.55	7714.96	1.66787	77.1022
29	1584.9	7742.91	217.835	7745.98	1.6115	78.5322
30	1258.9	7775.27	210.595	7778.12	1.55149	80.0573
31	1000	7800.05	204.572	7802.73	1.50235	81.8323
32	794.33	7827.85	199.666	7830.4	1.46113	83.9473
33	630.96	7856.23	195.413	7858.66	1.42486	85.4924
34	501.19	7882.61	190.297	7884.91	1.38293	87.1924
35	398.11	7912.21	187.993	7914.45	1.36108	88.5574
36	316.23	7937.13	185.032	7939.28	1.33545	89.9875
37	251.19	7963.13	183.595	7965.25	1.32075	91.5675
38	199.53	7987.43	181.39	7989.49	1.30093	93.1125
39	158.49	8013.2	183.021	8015.29	1.30841	94.6325
40	125.89	8035.74	183.438	8037.83	1.30771	96.3976
41	100	8060.44	187.616	8062.62	1.33339	97.9426
42	79.433	8085.07	192.337	8087.36	1.36276	99.4976
43	63.096	8108.75	199.195	8111.19	1.40721	101.413
44	50.119	8126.04	227.317	8129.22	1.60237	103.133
45	39.811	8157.15	219.295	8160.1	1.53996	112.508
46	31.623	8178.08	233.117	8181.4	1.63278	114.498
47	25.119	8209.17	244.882	8212.82	1.70865	116.408
48	19.953	8238.43	270.83	8242.88	1.88287	118.523
49	15.849	8272.49	297.419	8277.84	2.05906	120.818
50	12.589	8304.9	320.05	8311.07	2.20694	123.193
51	10	8336.84	358.216	8344.53	2.46037	125.638
52	7.9433	8383.51	397.355	8392.92	2.71363	128.288
53	6.3096	8436.34	442.612	8447.95	3.00326	131.623
54	5.0119	8478.13	494.078	8492.51	3.33524	135.728
55	3.9811	8530.49	556.244	8548.61	3.73078	139.438
56	3.1623	8584.35	626.797	8607.21	4.17611	145.008
57	2.5119	8660.35	691.292	8687.9	4.56382	148.949
58	1.9953	8699.88	829.174	8739.31	5.44434	152.599
59	1.5849	8795.92	894.563	8841.3	5.80713	157.684
60	1.2589	8869.22	1065.65	8933.01	6.85132	161.154
61	1	8963.19	1211.99	9044.76	7.70078	168.054
62	0.79433	9073.33	1399.16	9180.58	8.76628	172.149
63	0.63096	9176.39	1615.53	9317.51	9.98476	176.069
64	0.50119	9268.99	1918.94	9465.55	11.6966	180.559
65	0.39811	9388.57	2237.32	9651.47	13.4037	185.119
66	0.31623	9514.55	2665.66	9880.91	15.6511	190.159
67	0.25119	9682.19	3251.22	10213.5	18.5617	195.954
68	0.19953	9838.94	3825.84	10556.6	21.2484	202.59
69	0.15849	10040.2	4595.77	11042.1	24.5952	210.33
70	0.12589	10253.3	5601.18	11683.5	28.6469	219.23
71	0.1	10656.1	6812.71	12647.7	32.5919	229.9