File: data/20210121/Z_p46_1.txt
Index	Frequency (Hz)	Z' (Ω)	-Z'' (Ω)	Z (Ω)	-Phase (°)	Time (s)
1	1000000	3417.78	3392.88	4815.9	44.7905	21.8422
2	794330	4068.68	3204.98	5179.38	38.2282	23.4422
3	630960	4778.54	3137.69	5716.6	33.2898	25.4172
4	501190	5439.86	3060.89	6241.89	29.3655	27.5873
5	398110	6195.71	2892.51	6837.65	25.0259	35.1074
6	316230	6718.85	2697.89	7240.28	21.8775	36.9875
7	251190	7069.25	2399.85	7465.5	18.7512	42.9376
8	199530	7484.25	2195.82	7799.72	16.3513	44.7276
9	158490	7825.52	1975.63	8071.05	14.1688	46.3676
10	125890	8116.64	1758.6	8304.97	12.2251	48.1877
11	100000	8347.75	1548.69	8490.2	10.5102	49.8927
12	79433	8538.94	1358.93	8646.4	9.04248	51.6477
13	63096	8695.48	1184.11	8775.73	7.75455	53.6828
14	50119	8812.27	1029.88	8872.25	6.66586	55.4628
15	39811	8925.69	893.615	8970.31	5.71724	57.2028
16	31623	9002.77	774.379	9036.02	4.91623	59.1829
17	25119	9077.13	685.397	9102.97	4.3181	61.0329
18	19953	9141.78	605.968	9161.84	3.79234	62.7479
19	15849	9199.53	538.641	9215.29	3.3509	64.913
20	12589	9248.55	481.622	9261.09	2.981	68.508
21	10000	9292.51	436.35	9302.75	2.68847	70.2281
22	7943.3	9337.76	399.935	9346.32	2.45248	71.9881
23	6309.6	9379.63	367.181	9386.81	2.2418	73.7181
24	5011.9	9418.22	342.342	9424.44	2.08172	75.4832
25	3981.1	9459.74	321.663	9465.21	1.9475	77.4582
26	3162.3	9493.08	305.699	9498	1.84442	79.2232
27	2511.9	9531.72	290.37	9536.15	1.74489	81.0433
28	1995.3	9575.84	277.549	9579.86	1.66021	83.9033
29	1584.9	9616	266.856	9619.71	1.58962	85.4334
30	1258.9	9632.94	258.286	9636.41	1.53589	90.0484
31	1000	9666.35	250.549	9669.6	1.48476	91.7835
32	794.33	9702.69	243.881	9705.75	1.43985	93.5635
33	630.96	9731.1	237.122	9733.99	1.39588	95.2235
34	501.19	9766.25	229.995	9768.96	1.34907	97.1336
35	398.11	9798.15	224.513	9800.72	1.31264	98.7936
36	316.23	9836.58	218.947	9839.02	1.2751	100.424
37	251.19	9861.21	214.276	9863.53	1.24479	102.184
38	199.53	9897.99	211.165	9900.24	1.22217	103.869
39	158.49	9921.87	205.13	9923.99	1.1844	105.764
40	125.89	9952.98	202.776	9955.05	1.16715	107.669
41	100	9987.62	202.137	9989.67	1.15944	109.454
42	79.433	10013.1	199.892	10015	1.14365	111.234
43	63.096	10033.2	203.26	10035.2	1.16058	113.074
44	50.119	10076.9	143.42	10077.9	0.815409	115.274
45	39.811	10089.1	197.608	10091	1.12207	124.949
46	31.623	10116	202.003	10118	1.14397	127.054
47	25.119	10145.6	197.201	10147.5	1.11352	128.979
48	19.953	10164.7	202.127	10166.7	1.13919	131.249
49	15.849	10194.1	218.34	10196.4	1.22699	133.384
50	12.589	10225	226.369	10227.5	1.26825	135.969
51	10	10247.8	243.01	10250.7	1.35842	138.779
52	7.9433	10270.4	256.936	10273.7	1.43307	141.509
53	6.3096	10300.5	282.907	10304.4	1.57325	144.314
54	5.0119	10319.3	303.323	10323.8	1.68365	147.36
55	3.9811	10352.2	339.808	10357.8	1.88004	150.135
56	3.1623	10382.7	375.715	10389.5	2.07243	153.125
57	2.5119	10415.4	431.595	10424.4	2.37287	156.25
58	1.9953	10377.1	482.046	10388.3	2.65963	159.245
59	1.5849	10507.2	549.304	10521.6	2.99263	162.245
60	1.2589	10503	614.284	10520.9	3.34723	165.46
61	1	10586.2	760.516	10613.5	4.1091	171.84
62	0.79433	10660.5	897.444	10698.2	4.81204	175.41
63	0.63096	10716.9	1055.22	10768.8	5.62337	179.325
64	0.50119	10754.4	1241.75	10825.8	6.58648	183.75
65	0.39811	10841.5	1502.55	10945.1	7.89051	188.385
66	0.31623	10934.3	1794.27	11080.6	9.31892	193.285
67	0.25119	11004.8	2184.45	11219.6	11.2272	198.845
68	0.19953	11109.4	2592.81	11407.9	13.1371	205.341
69	0.15849	11234.3	3127.29	11661.5	15.5556	212.986
70	0.12589	11362.5	3815.89	11986.1	18.5638	222.336
71	0.1	11548.4	4593.97	12428.6	21.6927	239.016