File: data/20210121/Z_p43_1.txt
Index	Frequency (Hz)	Z' (Ω)	-Z'' (Ω)	Z (Ω)	-Phase (°)	Time (s)
1	1000000	3071.97	2977.65	4278.24	44.1067	24.8883
2	794330	3621.26	2866.64	4618.56	38.3656	27.2983
3	630960	4211.51	2844.21	5081.96	34.0328	29.4283
4	501190	4810.92	2789.95	5561.37	30.1103	31.3534
5	398110	5462.01	2690.93	6088.9	26.2278	37.1135
6	316230	5947.75	2567.76	6478.36	23.3508	38.9385
7	251190	6301.86	2314.57	6713.47	20.1675	44.4786
8	199530	6713.51	2156.45	7051.35	17.8076	46.2436
9	158490	7066.2	1977.39	7337.66	15.6336	47.8937
10	125890	7365.71	1792.7	7580.73	13.6789	49.7587
11	100000	7612.88	1608.67	7780.99	11.9316	54.0338
12	79433	7826.9	1434.78	7957.32	10.3878	57.4539
13	63096	8002.58	1277.8	8103.95	9.07201	60.1739
14	50119	8157.39	1127.72	8234.97	7.871	64.554
15	39811	8282.42	997.814	8342.31	6.86953	66.569
16	31623	8388.39	881.942	8434.63	6.00194	69.0041
17	25119	8475.47	788.364	8512.05	5.3142	72.0741
18	19953	8560.17	705.1	8589.16	4.70881	74.4442
19	15849	8634.01	633.975	8657.26	4.19955	76.5042
20	12589	8702.28	575.432	8721.28	3.78314	78.6692
21	10000	8760.12	523.446	8775.75	3.41955	83.8343
22	7943.3	8817.39	478.294	8830.36	3.10493	86.2244
23	6309.6	8868.92	440.432	8879.85	2.84298	88.5644
24	5011.9	8919.75	410.003	8929.17	2.63179	91.4445
25	3981.1	8964.39	381.744	8972.52	2.43844	93.4095
26	3162.3	9007.91	359.455	9015.08	2.28514	95.6196
27	2511.9	9052.28	340.736	9058.69	2.15565	99.4896
28	1995.3	9100.34	324.195	9106.11	2.04027	104.3
29	1584.9	9133.55	310.332	9138.82	1.946	109.485
30	1258.9	9172.23	297.836	9177.06	1.85983	110.975
31	1000	9206.82	287.845	9211.32	1.79073	112.47
32	794.33	9246.09	279.649	9250.31	1.73239	114.475
33	630.96	9282.94	270.813	9286.89	1.67103	116.335
34	501.19	9322.91	266.879	9326.73	1.63971	118.195
35	398.11	9357.88	260.684	9361.51	1.59569	121.695
36	316.23	9391.04	255.684	9394.52	1.55957	123.845
37	251.19	9429.62	254.339	9433.05	1.54503	125.94
38	199.53	9457.47	256.694	9460.95	1.55473	128.56
39	158.49	9495.75	255.945	9499.2	1.54396	130.805
40	125.89	9529.57	259.928	9533.12	1.56241	132.65
41	100	9563.51	265.722	9567.2	1.59155	134.39
42	79.433	9593.99	275.884	9597.95	1.64714	138.085
43	63.096	9627.81	281.629	9631.93	1.67552	141.175
44	50.119	9648.89	289.654	9653.23	1.71947	143.395
45	39.811	9697.39	312.693	9702.43	1.84687	154.826
46	31.623	9729.98	336.998	9735.81	1.98365	157.191
47	25.119	9775.91	364.104	9782.69	2.133	161.276
48	19.953	9821.39	395.549	9829.35	2.3063	163.426
49	15.849	9866.91	433.885	9876.45	2.51789	165.846
50	12.589	9912.64	476.018	9924.06	2.7493	168.411
51	10	9963.63	525.285	9977.47	3.01785	171.321
52	7.9433	10027.2	590.247	10044.6	3.3688	174.336
53	6.3096	10090.5	668.907	10112.7	3.79263	177.291
54	5.0119	10156.2	740.696	10183.2	4.17121	180.121
55	3.9811	10231.1	847.243	10266.2	4.73388	182.916
56	3.1623	10322.8	951.863	10366.6	5.26834	185.741
57	2.5119	10413.4	1087.96	10470.1	5.96445	188.671
58	1.9953	10526.2	1213.42	10595.9	6.57581	191.506
59	1.5849	10653.2	1384.64	10742.8	7.40543	194.381
60	1.2589	10794.2	1591.12	10910.8	8.38534	197.516
61	1	10891.6	1905.36	11057.1	9.92279	203.217
62	0.79433	11050.4	2210.92	11269.4	11.3141	206.982
63	0.63096	11206.5	2563.31	11495.9	12.8839	210.847
64	0.50119	11385.5	3049.47	11786.8	14.9941	215.127
65	0.39811	11524	3606.64	12075.2	17.3785	219.687
66	0.31623	11732.3	4282.93	12489.6	20.0548	224.957
67	0.25119	11998.6	5203.88	13078.5	23.4467	230.877
68	0.19953	12265.2	6142.8	13717.4	26.6032	237.652
69	0.15849	12627.6	7388.31	14630.2	30.3317	245.402
70	0.12589	12916.5	9016.23	15752.1	34.9165	254.167
71	0.1	13531.1	11029.4	17456.7	39.184	264.863