File: data/20210121/Z_p48_1.txt
Index	Frequency (Hz)	Z' (Ω)	-Z'' (Ω)	Z (Ω)	-Phase (°)	Time (s)
1	1000000	2180.58	1799.55	2827.24	39.5315	22.5222
2	794330	2484.68	1739.59	3033.12	34.9968	24.8023
3	630960	2822.6	1722.74	3306.8	31.3972	27.0473
4	501190	3161.46	1675.61	3578.06	27.9241	29.1123
5	398110	3507.6	1577.22	3845.89	24.2114	34.7424
6	316230	3792.18	1479.42	4070.54	21.3119	36.7025
7	251190	3981.99	1326.99	4197.28	18.4306	42.6876
8	199530	4216.35	1223.87	4390.38	16.1863	45.4226
9	158490	4414.98	1109.86	4552.34	14.1109	46.9977
10	125890	4579.94	992.644	4686.28	12.229	49.1877
11	100000	4712.86	878.356	4794.01	10.5573	54.8878
12	79433	4822.91	773.345	4884.52	9.10973	57.3629
13	63096	4913.79	675.554	4960.01	7.82802	59.3279
14	50119	4987.4	590.581	5022.25	6.7532	61.6879
15	39811	5050.55	514.67	5076.71	5.81857	63.788
16	31623	5099.1	448.217	5118.76	5.02346	65.708
17	25119	5141.07	395.11	5156.23	4.39475	68.003
18	19953	5181.09	349.749	5192.88	3.86189	70.0481
19	15849	5213.55	310.402	5222.78	3.40723	72.1581
20	12589	5242.62	279.014	5250.04	3.04643	74.3282
21	10000	5268.88	253.002	5274.95	2.74912	76.0932
22	7943.3	5294.85	231.517	5299.91	2.50365	80.1233
23	6309.6	5320.84	214.357	5325.16	2.30699	83.2383
24	5011.9	5341.74	200.102	5345.49	2.1453	85.5834
25	3981.1	5361.62	189.139	5364.95	2.02036	88.5134
26	3162.3	5384.55	180.066	5387.56	1.91533	90.7285
27	2511.9	5405.09	172.714	5407.85	1.8302	92.9785
28	1995.3	5424.92	166.749	5427.49	1.76058	97.9886
29	1584.9	5445.98	162.181	5448.4	1.70576	102.109
30	1258.9	5466.77	157.805	5469.05	1.65346	112.234
31	1000	5484.71	155.183	5486.91	1.62068	116.274
32	794.33	5506.26	153.027	5508.39	1.59192	122.584
33	630.96	5526.08	150.989	5528.14	1.56511	125.269
34	501.19	5546.86	149.863	5548.88	1.54762	126.979
35	398.11	5567.89	149.488	5569.9	1.53792	128.664
36	316.23	5591.44	149.629	5593.45	1.53289	130.409
37	251.19	5611.65	149.769	5613.65	1.52881	132.479
38	199.53	5629.67	152.044	5631.73	1.54704	134.174
39	158.49	5652.34	155.129	5654.46	1.57209	136.014
40	125.89	5673.09	158.681	5675.31	1.60219	138.004
41	100	5692.21	163.081	5694.54	1.64107	139.914
42	79.433	5713.71	169.828	5716.23	1.7025	141.929
43	63.096	5734.32	176.481	5737.04	1.7628	143.934
44	50.119	5746.57	190.256	5749.71	1.89625	146.81
45	39.811	5779.88	198.479	5783.29	1.96675	159.96
46	31.623	5801.66	209.959	5805.46	2.0726	166.62
47	25.119	5826.43	227.949	5830.88	2.24046	173.57
48	19.953	5857.63	252.31	5863.06	2.46642	179.925
49	15.849	5884.92	275.868	5891.38	2.6839	183.16
50	12.589	5914.27	301.347	5921.94	2.91684	185.635
51	10	5953.81	335.685	5963.26	3.22701	188.455
52	7.9433	5991.1	370.41	6002.54	3.5379	191.39
53	6.3096	6028.77	415.668	6043.08	3.94415	194.345
54	5.0119	6074.71	464.899	6092.48	4.37633	197.51
55	3.9811	6125.61	521.713	6147.78	4.86808	200.706
56	3.1623	6184.34	590.271	6212.44	5.45214	209.206
57	2.5119	6230.97	675.872	6267.52	6.19066	222.851
58	1.9953	6337.27	756.77	6382.3	6.80977	230.746
59	1.5849	6402.3	887.82	6463.56	7.89498	243.166
60	1.2589	6472.18	1003.13	6549.45	8.81021	252.041
61	1	6568.56	1135.14	6665.92	9.80465	258.887
62	0.79433	6672.4	1307.91	6799.38	11.0904	262.817
63	0.63096	6797.15	1500.48	6960.8	12.4485	266.857
64	0.50119	6904.01	1739.07	7119.67	14.1383	271.367
65	0.39811	7042.39	2045.02	7333.3	16.1926	276.132
66	0.31623	7188.22	2410.15	7581.51	18.5359	281.337
67	0.25119	7385.92	2803.07	7899.94	20.7825	287.272
68	0.19953	7553.95	3356.4	8266.05	23.9567	293.917
69	0.15849	7741.3	3978.26	8703.69	27.1986	301.777
70	0.12589	8026.47	4746.24	9324.75	30.5968	310.778
71	0.1	8297.82	5557.41	9986.93	33.8119	321.433