File: data/20210121/Z_p44_1.txt
Index	Frequency (Hz)	Z' (Ω)	-Z'' (Ω)	Z (Ω)	-Phase (°)	Time (s)
1	1000000	3076.15	3026.68	4315.49	44.5356	20.5822
2	794330	3644.57	2891.86	4652.5	38.431	22.5272
3	630960	4261	2850.35	5126.47	33.7801	24.6723
4	501190	4866.35	2770.27	5599.62	29.6516	26.7273
5	398110	5501.42	2675.95	6117.71	25.9388	35.5725
6	316230	5994.7	2522.77	6503.91	22.8229	38.1575
7	251190	6330.01	2269.26	6724.47	19.7224	46.2127
8	199530	6728.92	2099.7	7048.91	17.3301	48.2577
9	158490	7068.88	1911.43	7322.74	15.131	51.0377
10	125890	7351.6	1718.16	7549.71	13.1546	53.3728
11	100000	7581.36	1531.06	7734.42	11.4173	55.6228
12	79433	7782.72	1355.52	7899.88	9.88011	57.3579
13	63096	7943.18	1199.9	8033.3	8.59019	60.4179
14	50119	8077.23	1055.64	8145.92	7.44597	63.353
15	39811	8187.81	928.048	8240.24	6.4666	65.908
16	31623	8286.21	818.17	8326.51	5.63904	67.803
17	25119	8365.6	726.501	8397.08	4.96334	70.6431
18	19953	8437.92	647.657	8462.74	4.38916	72.4631
19	15849	8507.13	580.82	8526.94	3.90578	74.5082
20	12589	8565.08	525.308	8581.18	3.50963	78.5432
21	10000	8612.13	475.807	8625.27	3.16229	80.5583
22	7943.3	8671.91	437.822	8682.96	2.89026	83.0083
23	6309.6	8718.05	404.776	8727.44	2.65832	84.8634
24	5011.9	8760.9	378.219	8769.06	2.472	86.7784
25	3981.1	8806.12	355.705	8813.3	2.31309	88.5134
26	3162.3	8843.93	336.105	8850.32	2.17642	90.5485
27	2511.9	8888.06	319.916	8893.81	2.06141	92.6835
28	1995.3	8923.45	307.311	8928.74	1.97241	94.5485
29	1584.9	8963.29	295.86	8968.17	1.89053	96.0586
30	1258.9	8999.41	285.999	9003.96	1.82023	97.3736
31	1000	9039.43	278.314	9043.72	1.76352	98.8286
32	794.33	9076.02	270.695	9080.05	1.70836	100.244
33	630.96	9112.99	264.203	9116.82	1.66065	101.644
34	501.19	9154.57	257.576	9158.19	1.61167	103.084
35	398.11	9186.73	253.568	9190.23	1.58105	107.904
36	316.23	9218.23	251.178	9221.65	1.56081	109.344
37	251.19	9252.27	248.486	9255.6	1.53841	111.129
38	199.53	9284.01	246.568	9287.28	1.52132	112.519
39	158.49	9320.91	245.394	9324.14	1.50809	114.019
40	125.89	9350.24	247.221	9353.51	1.51455	115.599
41	100	9384	252.809	9387.41	1.5432	117.199
42	79.433	9417.56	257.881	9421.09	1.56854	118.814
43	63.096	9446.49	267.196	9450.27	1.62019	120.329
44	50.119	9501.23	288.915	9505.62	1.74172	122.164
45	39.811	9514.93	289.425	9519.33	1.74229	131.779
46	31.623	9555.51	305.412	9560.39	1.83065	134.124
47	25.119	9583.08	324.309	9588.57	1.93825	136.484
48	19.953	9628.86	352.161	9635.3	2.09457	138.869
49	15.849	9663.46	377.093	9670.82	2.23469	141.464
50	12.589	9705.21	416.3	9714.14	2.45617	143.859
51	10	9758.33	463.359	9769.33	2.71856	146.47
52	7.9433	9803.8	501.467	9816.62	2.92814	149.155
53	6.3096	9856.37	562.942	9872.43	3.26887	152.075
54	5.0119	9923.77	634.215	9944.02	3.65672	154.995
55	3.9811	9982.66	706.445	10007.6	4.04792	159.81
56	3.1623	10057.8	798.805	10089.5	4.54097	162.95
57	2.5119	10109.2	901.57	10149.3	5.09633	167.445
58	1.9953	10169.3	1082.35	10226.7	6.07532	171.14
59	1.5849	10427.4	1119.11	10487.3	6.12578	174.325
60	1.2589	10425.4	1379.63	10516.3	7.53832	177.91
61	1	10522.6	1608.56	10644.8	8.69139	183.69
62	0.79433	10667.2	1883.37	10832.2	10.0128	187.715
63	0.63096	10815.2	2195.58	11035.8	11.4756	191.675
64	0.50119	10955	2588.52	11256.7	13.2944	195.66
65	0.39811	11181.2	3058.26	11591.9	15.2973	200.401
66	0.31623	11361	3616.03	11922.6	17.6554	206.261
67	0.25119	11687.8	4362.19	12475.3	20.4669	211.881
68	0.19953	11932.2	5166.49	13002.7	23.412	218.576
69	0.15849	12305.3	6141.24	13752.6	26.5226	226.211
70	0.12589	12839.2	7373.17	14805.7	29.8674	234.991
71	0.1	13416.2	8612.28	15942.6	32.6976	245.336