File: data/20210121/Z_p41_1.txt
Index	Frequency (Hz)	Z' (Ω)	-Z'' (Ω)	Z (Ω)	-Phase (°)	Time (s)
1	1000000	2905.19	2493.4	3828.47	40.6381	23.9182
2	794330	3331.78	2325.58	4063.14	34.915	25.9933
3	630960	3794.86	2245.27	4409.33	30.6112	28.4983
4	501190	4254.02	2156.6	4769.44	26.883	31.0284
5	398110	4734.5	2030.59	5151.58	23.2141	36.6835
6	316230	5101.41	1888.95	5439.9	20.3186	38.6785
7	251190	5329.68	1666.85	5584.25	17.367	45.4236
8	199530	5623.32	1522.6	5825.81	15.1504	47.3837
9	158490	5862.49	1367.17	6019.79	13.1271	53.8138
10	125890	6058.76	1211.78	6178.76	11.3102	56.0388
11	100000	6218.68	1064.27	6309.09	9.71154	57.8339
12	79433	6346.01	929.527	6413.73	8.33309	59.6689
13	63096	6448.18	809.869	6498.84	7.15866	61.5839
14	50119	6535.37	700.616	6572.82	6.11896	63.524
15	39811	6601.09	607.916	6629.02	5.26171	65.484
16	31623	6657.85	527.069	6678.68	4.52639	67.264
17	25119	6705.45	463.726	6721.46	3.95608	69.2891
18	19953	6748.93	410.068	6761.37	3.47704	71.0991
19	15849	6788.13	366.273	6798.01	3.08856	72.7241
20	12589	6819.55	328.551	6827.46	2.75826	74.5842
21	10000	6848.49	297.621	6854.96	2.48839	76.5292
22	7943.3	6880.31	273.724	6885.75	2.27824	78.2592
23	6309.6	6907.07	254.631	6911.76	2.11127	80.0893
24	5011.9	6938.06	238.322	6942.15	1.96734	81.8893
25	3981.1	6964.44	225.789	6968.1	1.8569	83.7993
26	3162.3	6987.51	215.733	6990.84	1.76839	85.5694
27	2511.9	7013.05	206.759	7016.09	1.68871	87.3294
28	1995.3	7037.75	200.379	7040.6	1.63088	89.0394
29	1584.9	7065.73	194.298	7068.4	1.57516	90.7945
30	1258.9	7091.23	189.373	7093.75	1.52974	92.3695
31	1000	7117.44	185.046	7119.85	1.48929	93.9745
32	794.33	7143.44	180.853	7145.73	1.45027	95.7396
33	630.96	7163.48	178.2	7165.7	1.42501	97.5396
34	501.19	7190.91	176.026	7193.07	1.40226	99.3446
35	398.11	7217.88	173.299	7219.97	1.37539	101.07
36	316.23	7242.77	171.828	7244.81	1.35903	102.745
37	251.19	7266.28	171.28	7268.29	1.35032	104.52
38	199.53	7291.52	171.14	7293.53	1.34454	106.255
39	158.49	7311.18	171.748	7313.2	1.34569	107.895
40	125.89	7333.24	174.31	7335.31	1.36166	109.92
41	100	7360.64	177.534	7362.78	1.38167	111.765
42	79.433	7379.84	181.042	7382.06	1.4053	113.53
43	63.096	7403.48	188.1	7405.87	1.4554	115.21
44	50.119	7415.53	215.365	7418.66	1.66354	116.945
45	39.811	7451.08	203.449	7453.86	1.56405	126.46
46	31.623	7472.55	217.402	7475.71	1.66646	128.65
47	25.119	7502.06	232.577	7505.67	1.7757	130.755
48	19.953	7528.69	252.724	7532.93	1.92259	132.995
49	15.849	7565.6	267.873	7570.34	2.02781	135.36
50	12.589	7594.34	297.937	7600.18	2.24665	137.77
51	10	7628.44	322.142	7635.23	2.41811	140.545
52	7.9433	7667.54	354.694	7675.74	2.64857	143.37
53	6.3096	7714.54	390.498	7724.41	2.89775	146.266
54	5.0119	7757.53	435.913	7769.77	3.2162	149.241
55	3.9811	7805.01	485.791	7820.11	3.56155	152.276
56	3.1623	7853.28	543.066	7872.04	3.95579	155.771
57	2.5119	7916.9	632.077	7942.1	4.56475	158.691
58	1.9953	7966.77	691.497	7996.73	4.9607	161.676
59	1.5849	8002.72	806.43	8043.25	5.75424	164.811
60	1.2589	8079.26	900.229	8129.25	6.35794	167.941
61	1	8154.83	1044.81	8221.49	7.30108	173.631
62	0.79433	8249.39	1217.05	8338.68	8.39241	177.026
63	0.63096	8326.83	1426.23	8448.08	9.71937	181.001
64	0.50119	8406.65	1677.41	8572.37	11.2842	185.271
65	0.39811	8530.51	1984.23	8758.24	13.0944	189.881
66	0.31623	8644.37	2365.31	8962.13	15.3029	194.911
67	0.25119	8745.98	2875.06	9206.42	18.1972	200.562
68	0.19953	8978.86	3431.75	9612.33	20.917	207.837
69	0.15849	9146.04	4088.64	10018.3	24.0865	215.207
70	0.12589	9309.37	4904.61	10522.3	27.7824	224.132
71	0.1	9460.04	6061.84	11235.6	32.6511	234.837