File: data/20210121/Z_p47_1.txt
Index	Frequency (Hz)	Z' (Ω)	-Z'' (Ω)	Z (Ω)	-Phase (°)	Time (s)
1	1000000	2596.41	2115.86	3349.36	39.1773	27.9693
2	794330	2952.78	2007.89	3570.78	34.2157	30.8444
3	630960	3348.5	1947.21	3873.51	30.1788	33.4594
4	501190	3738.96	1872.09	4181.45	26.5971	35.8345
5	398110	4141.66	1734.21	4490.08	22.7202	44.6946
6	316230	4454.21	1598.63	4732.4	19.7432	46.8597
7	251190	4636.24	1413.18	4846.83	16.9518	54.3898
8	199530	4881.29	1287.45	5048.22	14.7754	56.3148
9	158490	5083.12	1154.15	5212.5	12.7924	58.8149
10	125890	5245.54	1021.29	5344.04	11.0174	61.3349
11	100000	5379.4	896.582	5453.6	9.46248	63.405
12	79433	5486.47	781.52	5541.85	8.10695	66.34
13	63096	5570.04	680.286	5611.43	6.96322	69.0951
14	50119	5644.26	590.218	5675.03	5.9697	71.7501
15	39811	5700.64	511.712	5723.56	5.12935	74.5802
16	31623	5748.77	443.593	5765.86	4.41238	77.1902
17	25119	5785.52	389.365	5798.61	3.85019	80.7303
18	19953	5821.79	345.172	5832.01	3.39308	83.0203
19	15849	5854.83	306.869	5862.87	3.00029	84.8654
20	12589	5883.05	275.77	5889.51	2.68379	86.7754
21	10000	5908.72	250.487	5914.03	2.42748	88.9704
22	7943.3	5935.67	229.402	5940.1	2.21327	90.7705
23	6309.6	5961.69	212.37	5965.47	2.04015	92.3005
24	5011.9	5981.72	198.3	5985.01	1.89872	93.9955
25	3981.1	6004.48	186.881	6007.39	1.78267	95.5856
26	3162.3	6022.23	177.587	6024.84	1.68908	97.0906
27	2511.9	6045.12	169.682	6047.5	1.60783	98.7956
28	1995.3	6066.45	163.776	6068.66	1.54644	100.746
29	1584.9	6088.73	158.179	6090.78	1.48815	102.681
30	1258.9	6108.08	152.863	6109.99	1.43361	107.086
31	1000	6128.15	148.248	6129.94	1.38579	108.846
32	794.33	6150.52	144.216	6152.21	1.34321	110.376
33	630.96	6167.66	140.606	6169.26	1.30597	113.561
34	501.19	6190.68	137.013	6192.19	1.26787	116.651
35	398.11	6206.27	133.62	6207.71	1.23338	118.731
36	316.23	6225.25	130.552	6226.62	1.2014	123.561
37	251.19	6241.99	128.869	6243.32	1.18273	130.986
38	199.53	6264.35	125.868	6265.61	1.15108	133.156
39	158.49	6281.69	124.604	6282.93	1.13637	137.296
40	125.89	6301.7	122.973	6302.9	1.11795	139.491
41	100	6315.93	123.714	6317.14	1.12214	141.636
42	79.433	6331.62	122.983	6332.81	1.11275	144.376
43	63.096	6348.92	126.158	6350.18	1.13836	146.782
44	50.119	6353.15	118.176	6354.25	1.06565	148.902
45	39.811	6378.23	126.188	6379.48	1.1334	158.857
46	31.623	6393.34	127.739	6394.62	1.14461	162.047
47	25.119	6407.92	131.373	6409.26	1.1745	165.027
48	19.953	6428.32	141.1	6429.86	1.25742	167.537
49	15.849	6440.96	147.544	6442.65	1.31225	171.022
50	12.589	6459.72	158.537	6461.67	1.40589	173.477
51	10	6477.05	171.919	6479.33	1.52043	176.897
52	7.9433	6488.18	191.776	6491.01	1.69304	179.812
53	6.3096	6509.33	211.334	6512.76	1.85953	182.632
54	5.0119	6527.03	235.729	6531.29	2.06839	185.487
55	3.9811	6546.89	270.952	6552.5	2.36991	188.442
56	3.1623	6568.46	306.025	6575.58	2.66748	191.527
57	2.5119	6599.83	367.486	6610.06	3.187	195.307
58	1.9953	6626.47	429.687	6640.39	3.71009	198.382
59	1.5849	6648.58	524.349	6669.22	4.50937	201.503
60	1.2589	6690.82	579.599	6715.88	4.95095	205.063
61	1	6729.51	691.481	6764.94	5.86675	211.018
62	0.79433	6782.33	824.851	6832.3	6.93413	214.613
63	0.63096	6844.45	968.238	6912.59	8.05182	219.028
64	0.50119	6892.2	1142.32	6986.22	9.41073	223.648
65	0.39811	6982.58	1370.65	7115.84	11.1057	229.738
66	0.31623	7046.12	1661.74	7239.42	13.27	235.873
67	0.25119	7117.46	1979.85	7387.69	15.5448	242.793
68	0.19953	7261.99	2358.77	7635.46	17.9943	249.438
69	0.15849	7319.04	2867.96	7860.89	21.3977	258.354
70	0.12589	7450.78	3511.23	8236.67	25.2325	268.244
71	0.1	7562.97	4235.86	8668.39	29.2522	288.949