File: data/20210121/Z_p42_1.txt
Index	Frequency (Hz)	Z' (Ω)	-Z'' (Ω)	Z (Ω)	-Phase (°)	Time (s)
1	1000000	3134.47	2893.34	4265.71	42.7092	23.5912
2	794330	3629.86	2695.14	4521.03	36.5935	25.4513
3	630960	4190.56	2612.4	4938.16	31.9395	27.2813
4	501190	4740.6	2523.75	5370.54	28.0294	29.3063
5	398110	5317.51	2414.04	5839.82	24.4171	34.9264
6	316230	5764.43	2262.24	6192.44	21.4274	36.6915
7	251190	6040.06	2016.85	6367.89	18.4648	42.0116
8	199530	6392.31	1859.33	6657.23	16.2181	43.8816
9	158490	6686.89	1688.11	6896.68	14.1683	45.7166
10	125890	6933.4	1514.88	7096.96	12.3249	47.6167
11	100000	7133.74	1346.59	7259.72	10.6896	49.3967
12	79433	7307.19	1195.08	7404.27	9.28837	51.2717
13	63096	7450.2	1054.08	7524.4	8.05297	53.3418
14	50119	7569.97	931.339	7627.04	7.0139	55.1318
15	39811	7664.85	819.488	7708.53	6.1026	56.8368
16	31623	7748.71	720.189	7782.1	5.30999	58.5869
17	25119	7815.4	643.123	7841.82	4.70422	60.2219
18	19953	7883.24	576.414	7904.28	4.18197	61.9419
19	15849	7941.19	518.601	7958.1	3.73641	63.707
20	12589	7997.76	471.74	8011.66	3.37563	65.757
21	10000	8043.61	432.125	8055.2	3.07513	67.627
22	7943.3	8093.22	396.716	8102.93	2.8063	69.4571
23	6309.6	8136.42	367.909	8144.74	2.58901	71.2171
24	5011.9	8179.2	345.236	8186.48	2.41696	72.9121
25	3981.1	8217.71	326.774	8224.2	2.27714	74.5972
26	3162.3	8255.55	311.107	8261.41	2.15815	76.2172
27	2511.9	8292.24	297.364	8297.57	2.05378	78.3622
28	1995.3	8326.45	285.018	8331.33	1.96049	80.2173
29	1584.9	8365.55	277.098	8370.13	1.89716	81.8473
30	1258.9	8401.26	269.961	8405.6	1.84047	83.5623
31	1000	8432.74	262.758	8436.83	1.78472	85.3174
32	794.33	8469.19	258.276	8473.13	1.74675	86.9974
33	630.96	8503.24	254.603	8507.05	1.71503	88.5274
34	501.19	8541.89	251.406	8545.59	1.68585	90.3525
35	398.11	8573.51	251.468	8577.19	1.68005	92.0675
36	316.23	8605.3	252.819	8609.01	1.68283	94.0825
37	251.19	8640.26	254.528	8644.01	1.68735	95.9726
38	199.53	8673.9	256.397	8677.69	1.69314	97.7176
39	158.49	8705.57	262.134	8709.51	1.72472	99.5976
40	125.89	8744.94	273.535	8749.21	1.79158	101.918
41	100	8773.05	283.905	8777.65	1.8535	103.863
42	79.433	8808.72	294.871	8813.65	1.91725	105.693
43	63.096	8848.77	312.085	8854.27	2.01991	107.683
44	50.119	8900.61	320.367	8906.38	2.0614	109.718
45	39.811	8920.9	353.756	8927.91	2.27086	119.213
46	31.623	8979.2	382.811	8987.36	2.44121	121.303
47	25.119	9019.25	414.021	9028.75	2.62827	126.443
48	19.953	9069.87	453.413	9081.2	2.8619	128.683
49	15.849	9126.41	492.647	9139.69	3.08985	131.183
50	12.589	9183	554.871	9199.75	3.45782	133.853
51	10	9252.49	602.196	9272.07	3.72383	136.343
52	7.9433	9324.71	661.149	9348.11	4.05565	139.123
53	6.3096	9398.94	735.4	9427.66	4.47387	142.008
54	5.0119	9485.18	813.278	9519.98	4.90067	144.898
55	3.9811	9571.72	912.194	9615.09	5.4439	148.114
56	3.1623	9677.44	1015.28	9730.55	5.98909	151.224
57	2.5119	9786.35	1134.07	9851.84	6.61013	154.339
58	1.9953	9867.04	1306.43	9953.15	7.54228	157.654
59	1.5849	10004.5	1482.69	10113.8	8.43001	160.949
60	1.2589	10151.3	1716.58	10295.4	9.59789	164.199
61	1	10307	1928.12	10485.8	10.5958	170.094
62	0.79433	10481.3	2214.54	10712.7	11.9303	173.624
63	0.63096	10666.6	2583	10974.9	13.6126	177.919
64	0.50119	10859.9	2985.07	11262.7	15.3694	182.434
65	0.39811	11045.8	3531.4	11596.6	17.7294	187.139
66	0.31623	11275.6	4190.75	12029.2	20.3884	192.319
67	0.25119	11601.4	4991.93	12629.8	23.2815	198.394
68	0.19953	11921.2	5840.69	13275.1	26.1021	205.545
69	0.15849	12344.1	7078.22	14229.5	29.8303	214.4
70	0.12589	12864.2	8432.3	15381.5	33.2442	223.5
71	0.1	13404.5	9935.88	16685.4	36.5471	234.275