File: data/20210121/Z_p49_1.txt
Index	Frequency (Hz)	Z' (Ω)	-Z'' (Ω)	Z (Ω)	-Phase (°)	Time (s)
1	1000000	2306.28	1903.46	2990.33	39.5342	23.6342
2	794330	2628.17	1838.54	3207.41	34.9747	25.6643
3	630960	2983.12	1807.13	3487.8	31.2068	27.7743
4	501190	3340.11	1766.24	3778.35	27.8698	30.1393
5	398110	3703.58	1661.71	4059.28	24.1647	36.2795
6	316230	4003.11	1572.73	4300.98	21.4488	38.5595
7	251190	4200.56	1403.67	4428.89	18.4777	46.2796
8	199530	4448.66	1300.93	4634.98	16.3007	48.3747
9	158490	4660.57	1186.76	4809.29	14.2861	50.3347
10	125890	4835.61	1069.83	4952.55	12.4752	53.5298
11	100000	4980.63	955.829	5071.52	10.8635	57.2648
12	79433	5105.62	850.818	5176.02	9.46102	60.1499
13	63096	5207.22	754.047	5261.53	8.23961	62.5999
14	50119	5293.05	665.825	5334.77	7.16971	66.515
15	39811	5364.85	592.07	5397.42	6.29773	69.6801
16	31623	5423.01	525.209	5448.38	5.53175	71.9501
17	25119	5476.96	469.401	5497.03	4.89855	74.3002
18	19953	5525.78	425.633	5542.15	4.40461	77.1552
19	15849	5570.03	388.453	5583.56	3.98934	79.6203
20	12589	5610.16	356.637	5621.48	3.63739	81.8703
21	10000	5646.41	332.146	5656.17	3.3665	84.9104
22	7943.3	5683.12	312.171	5691.69	3.14407	87.3204
23	6309.6	5717.35	295.864	5725	2.96232	89.4854
24	5011.9	5752.18	284.908	5759.23	2.83557	91.5555
25	3981.1	5786.66	276.667	5793.27	2.7373	94.3355
26	3162.3	5819.71	270.473	5825.99	2.66093	97.4556
27	2511.9	5849.75	267.902	5855.88	2.62215	99.3056
28	1995.3	5884.61	266.806	5890.65	2.59599	102.926
29	1584.9	5917.18	268.306	5923.26	2.59622	105.186
30	1258.9	5952.05	271.11	5958.22	2.60797	107.066
31	1000	5986.91	275.645	5993.25	2.63611	109.201
32	794.33	6021.64	282.455	6028.26	2.68559	111.281
33	630.96	6058.48	289.939	6065.41	2.7399	113.991
34	501.19	6096.87	301.32	6104.31	2.82938	116.376
35	398.11	6136.58	314.015	6144.61	2.92933	118.261
36	316.23	6178.4	328.183	6187.11	3.04057	120.211
37	251.19	6222.88	345.982	6232.49	3.18228	122.261
38	199.53	6269.12	367.998	6279.91	3.35942	124.346
39	158.49	6315	391.327	6327.11	3.54596	126.761
40	125.89	6368.44	420.238	6382.29	3.77534	129.506
41	100	6422.1	452.645	6438.04	4.03168	134.521
42	79.433	6480.19	490.203	6498.7	4.32598	136.956
43	63.096	6544.4	532.894	6566.06	4.65518	140.696
44	50.119	6618.06	564.857	6642.12	4.87842	143.996
45	39.811	6685.33	627.441	6714.71	5.3617	154.937
46	31.623	6767.21	686.162	6801.9	5.78973	157.917
47	25.119	6856.98	750.05	6897.88	6.24247	159.882
48	19.953	6951.2	826.235	7000.13	6.7785	162.027
49	15.849	7063.82	904.337	7121.47	7.29554	164.427
50	12.589	7184.26	994.437	7252.76	7.88074	166.967
51	10	7309.66	1088.5	7390.26	8.46981	170.892
52	7.9433	7449.51	1195.41	7544.81	9.11647	173.632
53	6.3096	7605.5	1312.29	7717.88	9.78967	176.597
54	5.0119	7770.24	1439.58	7902.47	10.4961	179.387
55	3.9811	7964.4	1582.99	8120.19	11.2415	182.677
56	3.1623	8158.66	1740.75	8342.29	12.0442	185.562
57	2.5119	8363.97	1922.09	8581.98	12.9422	188.582
58	1.9953	8585.08	2097.42	8837.57	13.729	192.112
59	1.5849	8848.71	2243.66	9128.73	14.228	195.692
60	1.2589	9135.82	2585.69	9494.68	15.803	199.077
61	1	9373.15	2872.65	9803.47	17.0391	209.368
62	0.79433	9671.62	3228.69	10196.3	18.4606	213.143
63	0.63096	9977.83	3631.56	10618.2	19.9996	216.963
64	0.50119	10307.5	4148.83	11111.1	21.9251	221.163
65	0.39811	10632	4767.07	11651.8	24.1499	225.998
66	0.31623	11019.7	5517.98	12324.1	26.5988	231.183
67	0.25119	11529.6	6482.08	13226.8	29.3452	236.743
68	0.19953	12014.4	7605.42	14219.3	32.3349	243.298
69	0.15849	12613.7	8871.99	15421.4	35.1211	251.283
70	0.12589	13314.5	10469.8	16938	38.1796	260.414
71	0.1	14361	12322.6	18923.1	40.6316	274.899