File: data/20210121/Z_p45_1.txt
Index	Frequency (Hz)	Z' (Ω)	-Z'' (Ω)	Z (Ω)	-Phase (°)	Time (s)
1	1000000	2298.55	1953.09	3016.27	40.3548	186.966
2	794330	2634.7	1873.43	3232.86	35.4151	190.596
3	630960	3005.88	1840.45	3524.57	31.4784	194.106
4	501190	3376.5	1780.18	3817.04	27.7994	258.943
5	398110	3752.45	1668.04	4106.48	23.9662	288.033
6	316230	4053.73	1564.52	4345.17	21.1039	293.948
7	251190	4246.79	1399.3	4471.38	18.2369	302.158
8	199530	4494.28	1287.05	4674.94	15.9804	303.918
9	158490	4698.27	1162.69	4839.99	13.8998	305.853
10	125890	4873.04	1037.97	4982.36	12.0245	307.808
11	100000	5009.95	916.434	5093.08	10.3661	309.954
12	79433	5123.42	803.8	5186.09	8.91631	311.929
13	63096	5215.69	702.504	5262.79	7.67104	314.214
14	50119	5292.04	610.959	5327.19	6.58557	316.284
15	39811	5353.74	531.839	5380.1	5.67313	318.384
16	31623	5402.76	463.629	5422.61	4.90473	320.494
17	25119	5448.84	409.933	5464.23	4.30243	322.574
18	19953	5487.44	361.948	5499.37	3.77373	325.639
19	15849	5522.3	322.043	5531.68	3.33753	327.799
20	12589	5551.44	289.559	5558.99	2.9858	330.289
21	10000	5579.79	263.059	5585.99	2.69921	332.569
22	7943.3	5604.72	240.737	5609.89	2.45949	334.694
23	6309.6	5630.24	222.686	5634.64	2.26497	336.939
24	5011.9	5657.39	208.387	5661.22	2.10951	338.994
25	3981.1	5681.3	196.947	5684.72	1.98541	341.019
26	3162.3	5701.89	187.293	5704.96	1.88135	343.109
27	2511.9	5723.16	179.416	5725.97	1.79559	345.819
28	1995.3	5746.51	173.542	5749.13	1.72978	347.789
29	1584.9	5766.61	168.565	5769.08	1.67435	349.954
30	1258.9	5787.38	164.526	5789.72	1.62839	351.854
31	1000	5809.19	161.016	5811.42	1.58769	353.894
32	794.33	5833.43	158.783	5835.59	1.55918	356.044
33	630.96	5853.47	156.323	5855.56	1.52978	357.984
34	501.19	5873.32	155.012	5875.37	1.51183	360.014
35	398.11	5895.15	154.116	5897.16	1.49754	362.214
36	316.23	5916.82	153.859	5918.82	1.48957	364.35
37	251.19	5937.7	154.44	5939.71	1.48993	366.48
38	199.53	5961.98	155.315	5964	1.49227	368.39
39	158.49	5981.46	157.805	5983.54	1.51124	370.405
40	125.89	6003.68	161.09	6005.84	1.53698	372.54
41	100	6023.64	165.712	6025.92	1.57582	374.865
42	79.433	6048.73	170.511	6051.13	1.61472	376.815
43	63.096	6066.66	178.427	6069.29	1.68465	379.43
44	50.119	6102.35	180.727	6105.03	1.69638	381.665
45	39.811	6111.67	196.71	6114.83	1.84348	391.465
46	31.623	6137.14	206.758	6140.62	1.92954	393.79
47	25.119	6164.77	222.722	6168.8	2.06909	395.975
48	19.953	6192.43	241.778	6197.15	2.23593	398.705
49	15.849	6219.21	260.261	6224.65	2.39631	401.65
50	12.589	6249.76	286.6	6256.33	2.62561	404.42
51	10	6282.9	313.837	6290.73	2.85961	407.41
52	7.9433	6320.31	351.951	6330.1	3.18726	410.6
53	6.3096	6360.27	386.696	6372.02	3.47922	413.96
54	5.0119	6404.28	426.247	6418.44	3.8078	417.015
55	3.9811	6446.04	475.989	6463.59	4.22318	420.051
56	3.1623	6498.8	537.375	6520.98	4.72694	429.361
57	2.5119	6554.61	616.425	6583.53	5.37255	472.662
58	1.9953	6649.16	678.975	6683.73	5.83052	506.502
59	1.5849	6684.07	780.255	6729.46	6.6582	511.042
60	1.2589	6752.43	903.101	6812.55	7.61779	517.597
61	1	6842.84	1013.82	6917.53	8.42748	524.147
62	0.79433	6937.64	1166.23	7034.98	9.54227	538.128
63	0.63096	7033.49	1347.89	7161.48	10.8485	562.573
64	0.50119	7148.14	1561.81	7316.77	12.325	573.343
65	0.39811	7262.23	1822.22	7487.36	14.0857	595.344
66	0.31623	7385.98	2142.15	7690.35	16.1737	617.674
67	0.25119	7523.9	2521.33	7935.12	18.5265	666.035
68	0.19953	7671.07	2990.07	8233.22	21.2951	705.706
69	0.15849	7834.6	3570.23	8609.73	24.4987	749.902
70	0.12589	8004.2	4286.29	9079.62	28.1693	793.377
71	0.1	8203.41	5155.72	9689.04	32.1488	813.438