File: data/20210121/Z_p55_1.txt
Index	Frequency (Hz)	Z' (Ω)	-Z'' (Ω)	Z (Ω)	-Phase (°)	Time (s)
1	1000000	2949.22	2971.57	4186.66	45.2163	20.5472
2	794330	3511.36	2881.39	4542.25	39.372	23.0922
3	630960	4102.86	2888.03	5017.39	35.1419	25.0023
4	501190	4706.84	2866.23	5510.86	31.3394	27.3423
5	398110	5362.23	2792.13	6045.61	27.5061	34.6824
6	316230	5876.78	2675.28	6457.07	24.4764	37.1275
7	251190	6251.3	2447.87	6713.48	21.3843	46.1626
8	199530	6689.93	2302.56	7075.09	18.9926	48.5527
9	158490	7073.61	2130.78	7387.57	16.7638	51.0877
10	125890	7410.2	1945.75	7661.4	14.7124	52.9978
11	100000	7685.42	1756.37	7883.56	12.8729	55.5178
12	79433	7934.36	1574.92	8089.15	11.2269	57.8379
13	63096	8132.4	1398.5	8251.77	9.75751	62.0679
14	50119	8303.49	1235.04	8394.84	8.46003	64.103
15	39811	8447.92	1087.51	8517.63	7.3354	65.978
16	31623	8562.7	954.201	8615.7	6.35863	68.113
17	25119	8663.54	843.403	8704.49	5.56028	70.0981
18	19953	8749.76	748.623	8781.73	4.89027	72.8331
19	15849	8827.56	666.379	8852.68	4.31698	79.4233
20	12589	8892.15	593.956	8911.96	3.82143	81.5433
21	10000	8950.12	533.039	8965.98	3.40832	83.3683
22	7943.3	9009.19	481.138	9022.03	3.05699	85.2434
23	6309.6	9059.46	439.948	9070.14	2.78023	89.3184
24	5011.9	9101.71	403.05	9110.63	2.53556	92.4135
25	3981.1	9144.04	371.451	9151.58	2.3262	93.9385
26	3162.3	9183.79	347.088	9190.34	2.16438	95.4686
27	2511.9	9225.14	325.961	9230.9	2.02364	97.0436
28	1995.3	9271.45	309.675	9276.62	1.91302	99.7886
29	1584.9	9301.03	294.481	9305.69	1.81344	104.099
30	1258.9	9330.89	284.17	9335.22	1.74439	105.934
31	1000	9365.48	274.19	9369.49	1.67695	107.769
32	794.33	9402.43	267.659	9406.24	1.6306	110.634
33	630.96	9434.41	262.749	9438.07	1.59528	112.464
34	501.19	9472.49	255.832	9475.94	1.54706	114.354
35	398.11	9502.77	256.901	9506.24	1.54858	116.409
36	316.23	9536.26	256.357	9539.71	1.53988	118.439
37	251.19	9572.03	258.591	9575.52	1.54748	121.209
38	199.53	9599.07	263.033	9602.67	1.56962	123.029
39	158.49	9636.96	271.482	9640.79	1.61365	124.894
40	125.89	9672.94	281.532	9677.04	1.66713	127.024
41	100	9703.4	295.351	9707.89	1.74342	129.084
42	79.433	9740.83	310.952	9745.79	1.8284	131.054
43	63.096	9779.35	328.627	9784.87	1.92465	133.204
44	50.119	9879.79	313.323	9884.76	1.81644	135.244
45	39.811	9865.01	376.086	9872.18	2.18324	146.92
46	31.623	9907.9	414.25	9916.55	2.39415	148.925
47	25.119	9956.25	448.321	9966.34	2.57824	152.22
48	19.953	10010.7	498.153	10023.1	2.8488	154.7
49	15.849	10055.9	549.431	10070.8	3.12742	157.065
50	12.589	10112.4	605.275	10130.5	3.42533	159.4
51	10	10180.8	678.719	10203.4	3.81407	162.14
52	7.9433	10251	772.982	10280.1	4.31224	164.825
53	6.3096	10331.5	864.105	10367.6	4.78096	167.495
54	5.0119	10411.5	979.697	10457.5	5.37556	170.325
55	3.9811	10519.4	1117.28	10578.5	6.06273	173.295
56	3.1623	10611.7	1283.43	10689.1	6.8961	176.185
57	2.5119	10714.2	1490.76	10817.4	7.92123	179.135
58	1.9953	10853.5	1725.23	10989.8	9.03194	182.18
59	1.5849	11059.1	1958.01	11231.1	10.0401	185.405
60	1.2589	11129.9	2327.19	11370.6	11.81	188.695
61	1	11369.5	2720.4	11690.4	13.4563	194.42
62	0.79433	11591.3	3192.2	12022.9	15.3973	197.9
63	0.63096	11858.9	3738.19	12434.1	17.496	202.076
64	0.50119	12120.6	4440.37	12908.3	20.1203	206.421
65	0.39811	12428.8	5225.48	13482.6	22.8034	210.971
66	0.31623	12822.5	6211.51	14247.8	25.8466	216.091
67	0.25119	13229.5	7456.01	15185.9	29.4052	221.976
68	0.19953	13785.3	8781.4	16344.7	32.4975	228.511
69	0.15849	14382.3	10484.4	17798.1	36.0912	235.906
70	0.12589	15103.2	12502.8	19606.8	39.6188	245.411
71	0.1	16078.1	15093.8	22052.9	43.1913	255.942