File: data/20210121/Z_p50_1.txt
Index	Frequency (Hz)	Z' (Ω)	-Z'' (Ω)	Z (Ω)	-Phase (°)	Time (s)
1	1000000	2801.51	2609.21	3828.37	42.9645	20.3692
2	794330	3273.87	2523.23	4133.39	37.6222	22.2992
3	630960	3798.74	2491.7	4543.01	33.262	24.4042
4	501190	4339.83	2419.1	4968.52	29.1361	26.4043
5	398110	4869.95	2343.91	5404.66	25.7015	31.9044
6	316230	5296.71	2202.8	5736.5	22.5815	33.6294
7	251190	5580.07	2010.54	5931.22	19.8145	43.4496
8	199530	5948.26	1857.85	6231.64	17.3454	45.5246
9	158490	6251.56	1696.06	6477.55	15.179	47.2947
10	125890	6505.58	1528.56	6682.74	13.2224	49.0397
11	100000	6718.3	1363.84	6855.33	11.4753	50.9747
12	79433	6891.34	1214.83	6997.6	9.99758	54.3798
13	63096	7034.63	1072.09	7115.86	8.66528	56.3848
14	50119	7156.67	946.748	7219.02	7.53584	58.1849
15	39811	7261.95	829.111	7309.13	6.51337	59.8899
16	31623	7345.98	728.887	7382.06	5.66648	61.4449
17	25119	7415.18	644.627	7443.15	4.96843	63.065
18	19953	7481.3	575.491	7503.4	4.39876	64.835
19	15849	7537.9	513.071	7555.34	3.89386	66.385
20	12589	7591.8	462.866	7605.9	3.48896	68.02
21	10000	7635.42	424.396	7647.2	3.18137	69.4751
22	7943.3	7683.5	389.266	7693.36	2.90027	70.9001
23	6309.6	7724.78	359.349	7733.13	2.66342	72.2901
24	5011.9	7761.42	339.323	7768.83	2.50333	73.8602
25	3981.1	7799.83	320.049	7806.39	2.34969	75.3802
26	3162.3	7833.88	304.713	7839.81	2.2275	76.8402
27	2511.9	7871.68	292.176	7877.11	2.12569	78.6502
28	1995.3	7904.73	282.398	7909.77	2.04603	80.2103
29	1584.9	7939.54	276.094	7944.34	1.99164	81.6653
30	1258.9	7975.66	269.772	7980.22	1.93726	83.2003
31	1000	8009.74	264.862	8014.12	1.89394	85.0704
32	794.33	8045.85	262.257	8050.12	1.86692	86.9154
33	630.96	8079.56	261.228	8083.78	1.85184	88.5854
34	501.19	8114.31	260.584	8118.49	1.83937	90.2255
35	398.11	8151.03	261.396	8155.22	1.83679	91.7605
36	316.23	8189.78	265.897	8194.1	1.85956	93.2705
37	251.19	8221.68	269.411	8226.09	1.87682	94.9505
38	199.53	8255.85	276.56	8260.48	1.91861	96.4206
39	158.49	8293.09	286.582	8298.04	1.97917	98.0406
40	125.89	8331.39	296.367	8336.66	2.03729	99.7356
41	100	8370.62	313.056	8376.47	2.14183	101.406
42	79.433	8407.84	329.939	8414.31	2.24724	103.121
43	63.096	8449.19	355.271	8456.66	2.40775	105.116
44	50.119	8466.43	392.15	8475.51	2.65195	106.886
45	39.811	8540.74	410.088	8550.58	2.74897	116.436
46	31.623	8585.4	442.299	8596.78	2.94913	118.711
47	25.119	8641.97	482.921	8655.45	3.19841	120.916
48	19.953	8700.72	535.657	8717.2	3.52295	123.561
49	15.849	8761.15	581.668	8780.44	3.79839	126.461
50	12.589	8833.75	649.557	8857.6	4.20546	128.856
51	10	8915.57	720.756	8944.65	4.62188	131.666
52	7.9433	8994.26	799.724	9029.75	5.08109	135.491
53	6.3096	9086.57	887.654	9129.82	5.57944	140.491
54	5.0119	9194.77	995.765	9248.53	6.18087	143.256
55	3.9811	9313.45	1108.31	9379.16	6.78636	148.112
56	3.1623	9436.43	1233.41	9516.69	7.44678	151.382
57	2.5119	9603.17	1422.56	9707.96	8.42621	154.637
58	1.9953	9704.28	1655.55	9844.48	9.68144	157.862
59	1.5849	9854.39	1731.62	10005.4	9.96631	160.797
60	1.2589	10048.3	1982.64	10242	11.1618	163.832
61	1	10240.8	2288.13	10493.3	12.5949	169.507
62	0.79433	10476.8	2636.38	10803.4	14.1246	173.237
63	0.63096	10685.1	3034.73	11107.7	15.8554	177.152
64	0.50119	10937.6	3490.39	11481	17.6988	181.607
65	0.39811	11237.1	4101.8	11962.3	20.0533	188.232
66	0.31623	11554.9	4803.03	12513.4	22.5712	200.983
67	0.25119	11963.4	5647.86	13229.6	25.2717	206.733
68	0.19953	12428.8	6735.72	14136.6	28.4553	213.308
69	0.15849	12968	7933.3	15202.2	31.4567	220.813
70	0.12589	13626.9	9312.32	16504.9	34.3479	229.743
71	0.1	14196.8	11075.2	18005.8	37.9586	240.253