File: data/20210121/Z_p52_1.txt
Index	Frequency (Hz)	Z' (Ω)	-Z'' (Ω)	Z (Ω)	-Phase (°)	Time (s)
1	1000000	3042.43	2705.07	4071.09	41.6408	21.8962
2	794330	3540.65	2557.67	4367.82	35.8433	24.2712
3	630960	4073.35	2483.9	4770.95	31.3746	26.3413
4	501190	4580.24	2391.95	5167.21	27.575	28.8263
5	398110	5134.56	2234.33	5599.64	23.5165	35.5714
6	316230	5507.61	2056.79	5879.13	20.4779	37.3565
7	251190	5783.89	1822.6	6064.26	17.4905	43.1166
8	199530	6100.74	1658.7	6322.21	15.2102	44.8116
9	158490	6360.63	1485.28	6531.74	13.1437	46.6517
10	125890	6568.47	1313.7	6698.56	11.31	48.5167
11	100000	6736.34	1150.65	6833.91	9.69331	50.8417
12	79433	6875.18	1002.26	6947.85	8.29408	52.7068
13	63096	6985.57	865.068	7038.93	7.05936	54.6318
14	50119	7075.81	753.294	7115.8	6.07684	56.8868
15	39811	7147.13	648.743	7176.51	5.18651	58.8169
16	31623	7207.85	557.593	7229.39	4.42354	60.8369
17	25119	7252.92	486.73	7269.23	3.83926	63.662
18	19953	7296.91	427.663	7309.43	3.3542	65.777
19	15849	7338.59	377.22	7348.27	2.94255	67.702
20	12589	7371.03	334.638	7378.62	2.59939	69.6121
21	10000	7399.93	302.157	7406.1	2.33823	71.4021
22	7943.3	7429.31	271.717	7434.28	2.09459	73.2871
23	6309.6	7455.37	248.545	7459.51	1.90941	75.1472
24	5011.9	7482.15	230.649	7485.7	1.76568	76.9922
25	3981.1	7504.38	213.371	7507.41	1.62864	78.9122
26	3162.3	7528.33	200.263	7530.99	1.52378	80.7923
27	2511.9	7548.43	189.909	7550.82	1.44119	82.5823
28	1995.3	7574.23	180.372	7576.37	1.36418	84.4523
29	1584.9	7594.54	172.99	7596.51	1.30487	85.8074
30	1258.9	7618.93	165.989	7620.74	1.24807	87.5824
31	1000	7638.34	159.767	7640.01	1.19825	89.2824
32	794.33	7657.81	154.716	7659.37	1.15743	91.0125
33	630.96	7678.5	149.156	7679.94	1.11284	93.8975
34	501.19	7700.37	144.778	7701.73	1.07711	98.0226
35	398.11	7716.79	141.061	7718.08	1.04724	99.9626
36	316.23	7736.3	138.685	7737.54	1.02701	101.783
37	251.19	7755.74	136.208	7756.93	1.00614	103.683
38	199.53	7773.61	135.066	7774.78	0.995413	105.333
39	158.49	7793.15	134.941	7794.32	0.991994	107.093
40	125.89	7807.49	137.352	7808.7	1.00786	109.018
41	100	7828.22	140.941	7829.49	1.03145	110.858
42	79.433	7841.68	142.753	7842.97	1.04292	112.623
43	63.096	7861.5	150.234	7862.94	1.09479	115.148
44	50.119	7860.73	145.101	7862.07	1.0575	117.023
45	39.811	7890.93	165.49	7892.66	1.20144	126.743
46	31.623	7909.46	181.903	7911.55	1.31747	128.823
47	25.119	7923.54	192.512	7925.88	1.39179	130.928
48	19.953	7951.56	216.799	7954.51	1.56178	133.148
49	15.849	7970.5	238.975	7974.08	1.71735	135.568
50	12.589	8002.04	268.642	8006.54	1.92279	137.953
51	10	8024.89	302.346	8030.59	2.15766	140.798
52	7.9433	8050.02	340.288	8057.21	2.42055	143.813
53	6.3096	8080.55	387.821	8089.85	2.74777	146.749
54	5.0119	8109.95	449.219	8122.39	3.17044	149.684
55	3.9811	8149.68	519.409	8166.21	3.64674	152.844
56	3.1623	8191.11	607.252	8213.59	4.23989	155.904
57	2.5119	8235.33	705.627	8265.5	4.89731	159.174
58	1.9953	8309.35	832.612	8350.96	5.72204	162.329
59	1.5849	8355.66	904.845	8404.51	6.18054	165.429
60	1.2589	8425.45	1143.08	8502.63	7.72611	168.779
61	1	8507.2	1361.71	8615.49	9.09391	175.079
62	0.79433	8598.02	1611.16	8747.67	10.6134	181.049
63	0.63096	8697.42	1926.21	8908.16	12.4877	187.509
64	0.50119	8803.1	2275.53	9092.44	14.4932	191.874
65	0.39811	8915.49	2751.49	9330.42	17.1512	196.789
66	0.31623	9096.38	3314.68	9681.49	20.0215	204.335
67	0.25119	9291.27	3982.53	10108.8	23.2015	211.465
68	0.19953	9495.98	4897.93	10684.7	27.2842	218.42
69	0.15849	9772.44	5928.58	11430.2	31.2436	225.98
70	0.12589	10087.1	7165.22	12372.9	35.3876	235.47
71	0.1	10516.6	8543.24	13549.4	39.0888	246.07