File: data/20210121/Z_p54_1.txt
Index	Frequency (Hz)	Z' (Ω)	-Z'' (Ω)	Z (Ω)	-Phase (°)	Time (s)
1	1000000	2927.9	3024.29	4209.38	45.9278	25.7173
2	794330	3506.67	2922.36	4564.75	39.8069	27.8023
3	630960	4121.81	2952.46	5070.14	35.6141	31.5074
4	501190	4764.04	2941.35	5598.89	31.6914	33.2824
5	398110	5422.23	2856.27	6128.53	27.7789	40.2025
6	316230	5962.84	2721.08	6554.37	24.5291	42.0576
7	251190	6354.21	2492.77	6825.68	21.4202	48.4227
8	199530	6794.44	2333.23	7183.9	18.9526	50.4227
9	158490	7179.99	2144.56	7493.43	16.6301	51.8577
10	125890	7511.14	1947.2	7759.43	14.5335	53.4628
11	100000	7855.22	1777.05	8053.72	12.7472	55.9928
12	79433	8100.12	1583.83	8253.51	11.0635	58.6279
13	63096	8295.14	1401.69	8412.73	9.5911	60.8179
14	50119	8465.54	1246.21	8556.78	8.37432	62.6879
15	39811	8599.53	1089.51	8668.27	7.22057	64.458
16	31623	8715.25	956.416	8767.58	6.26261	66.143
17	25119	8815.28	850.011	8856.17	5.5077	68.3631
18	19953	8900.64	749.982	8932.18	4.81645	70.2231
19	15849	8983.41	671.146	9008.44	4.2726	71.7181
20	12589	9043.74	598.929	9063.55	3.78893	73.2031
21	10000	9103.52	538.897	9119.46	3.38776	74.7632
22	7943.3	9166.34	491.939	9179.53	3.072	76.3232
23	6309.6	9217	450.39	9228	2.79754	78.2132
24	5011.9	9263.3	415.072	9272.59	2.5656	79.8883
25	3981.1	9306.31	383.984	9314.22	2.36272	81.6083
26	3162.3	9348.63	359.352	9355.54	2.20131	83.2433
27	2511.9	9389.89	340.756	9396.08	2.07833	84.7884
28	1995.3	9444.64	324.251	9450.21	1.96629	87.1234
29	1584.9	9470.33	310.308	9475.41	1.8767	91.0035
30	1258.9	9505.37	299.525	9510.09	1.80486	92.6285
31	1000	9540.81	287.994	9545.16	1.72897	94.1685
32	794.33	9578.02	280.368	9582.12	1.67668	96.4186
33	630.96	9612.49	275.398	9616.44	1.64107	111.674
34	501.19	9651.44	270.971	9655.24	1.6082	116.709
35	398.11	9689.29	266.103	9692.94	1.57315	118.669
36	316.23	9721.06	265.51	9724.68	1.56453	120.679
37	251.19	9757.6	260.676	9761.08	1.5303	122.744
38	199.53	9795.33	266.68	9798.96	1.55951	125.839
39	158.49	9833.38	268.53	9837.04	1.56425	127.599
40	125.89	9865.13	274.22	9868.94	1.59224	129.579
41	100	9903.14	278.076	9907.04	1.60842	131.524
42	79.433	9939.49	287.169	9943.64	1.65491	133.384
43	63.096	9984.43	302.291	9989	1.73417	135.849
44	50.119	10019.3	254.328	10022.6	1.45407	137.834
45	39.811	10043.5	326.233	10048.8	1.86043	147.19
46	31.623	10094.3	344.799	10100.2	1.95634	149.31
47	25.119	10136.2	361.51	10142.6	2.04261	151.515
48	19.953	10181.2	399.516	10189.1	2.24716	154.225
49	15.849	10321.8	450.057	10331.6	2.49667	157.09
50	12.589	10375.5	483.269	10386.8	2.66679	165.1
51	10	10419.6	542.825	10433.7	2.98222	169.785
52	7.9433	10479.3	603.389	10496.7	3.29539	173.295
53	6.3096	10533	671.231	10554.4	3.64633	176.685
54	5.0119	10606.6	764.535	10634.1	4.12281	180.34
55	3.9811	10680.4	862.89	10715.2	4.61898	183.57
56	3.1623	10755.7	978.34	10800.1	5.19733	187.26
57	2.5119	10829.1	1115.75	10886.5	5.88256	191.415
58	1.9953	10962.8	1378.61	11049.1	7.16755	196.185
59	1.5849	11023.1	1572.51	11134.7	8.11877	200.175
60	1.2589	11134.2	1798.93	11278.6	9.17788	204.026
61	1	11306.4	2084.12	11496.9	10.4441	209.881
62	0.79433	11478	2447.54	11736	12.0374	213.646
63	0.63096	11655.5	2896.69	12010.1	13.9567	217.786
64	0.50119	11870.5	3404.58	12349.1	16.0034	222.481
65	0.39811	12064.1	4066.85	12731.1	18.6291	227.221
66	0.31623	12332.2	4865.8	13257.4	21.5322	232.271
67	0.25119	12698	5864.25	13986.7	24.7887	238.376
68	0.19953	13079.5	6876.27	14776.9	27.7322	245.411
69	0.15849	13565.8	8318.89	15913.4	31.5176	254.046
70	0.12589	14195.3	9964.66	17343.6	35.0676	263.417
71	0.1	14895.3	11825.3	19018.6	38.4459	274.697