File: data/20210121/Z_p51_1.txt
Index	Frequency (Hz)	Z' (Ω)	-Z'' (Ω)	Z (Ω)	-Phase (°)	Time (s)
1	1000000	2397.57	2025.71	3138.77	40.1946	24.8182
2	794330	2744.52	1950.77	3367.18	35.4047	26.8983
3	630960	3136	1909.71	3671.72	31.3399	29.0033
4	501190	3527.55	1849.93	3983.2	27.6736	31.2284
5	398110	3903.8	1747.16	4276.94	24.1111	37.6485
6	316230	4212.45	1635.74	4518.89	21.2217	39.7485
7	251190	4424.58	1461.65	4659.75	18.2809	46.1886
8	199530	4683.73	1348.1	4873.87	16.0572	48.1487
9	158490	4895.58	1222.29	5045.86	14.0186	50.1287
10	125890	5076.77	1095.38	5193.59	12.1757	52.3688
11	100000	5221.95	972.111	5311.66	10.5454	56.3488
12	79433	5346.8	857.991	5415.2	9.11642	59.4689
13	63096	5447.33	752.339	5499.04	7.86346	62.5189
14	50119	5531.34	660.458	5570.63	6.80904	65.659
15	39811	5603.91	576.665	5633.5	5.87529	69.0591
16	31623	5659.12	502.972	5681.43	5.07899	72.3741
17	25119	5704.85	444.732	5722.15	4.45758	74.4542
18	19953	5749.03	393.195	5762.46	3.91255	78.3592
19	15849	5787.16	351.05	5797.8	3.47132	80.5143
20	12589	5821.65	314.461	5830.14	3.09187	82.7543
21	10000	5852.98	282.708	5859.81	2.76532	85.5594
22	7943.3	5883.08	258.387	5888.75	2.51484	87.7394
23	6309.6	5911.34	237.633	5916.11	2.30202	91.3345
24	5011.9	5932.88	221.128	5937	2.13452	95.2896
25	3981.1	5957.24	206.036	5960.8	1.98084	97.4946
26	3162.3	5976.68	194.394	5979.84	1.86292	99.4296
27	2511.9	6000.7	185.54	6003.57	1.77101	102.645
28	1995.3	6023.89	178.29	6026.53	1.6953	105.205
29	1584.9	6042.71	172.735	6045.18	1.63739	107.005
30	1258.9	6063.37	168.781	6065.72	1.59448	109.96
31	1000	6085.48	165.279	6087.72	1.55574	112.59
32	794.33	6104.21	163.07	6106.38	1.53025	114.76
33	630.96	6125.39	162.061	6127.53	1.51553	116.9
34	501.19	6149.01	162.29	6151.15	1.51185	119.445
35	398.11	6167.27	163.632	6169.44	1.51983	122.405
36	316.23	6192.83	165.95	6195.06	1.53499	124.49
37	251.19	6211.37	170.669	6213.71	1.57392	127.19
38	199.53	6234.88	175.419	6237.35	1.6116	132.74
39	158.49	6258.78	183.118	6261.46	1.67587	134.76
40	125.89	6277.3	192.649	6280.26	1.75784	138.13
41	100	6305.1	204.847	6308.43	1.86083	142.615
42	79.433	6329.97	218.131	6333.72	1.97364	145.34
43	63.096	6352.59	235.355	6356.95	2.12177	147.681
44	50.119	6359.35	256.421	6364.52	2.30902	150.441
45	39.811	6410.33	277.839	6416.34	2.48178	160.606
46	31.623	6442.09	304.835	6449.3	2.70917	163.936
47	25.119	6478.41	332.908	6486.96	2.94169	167.231
48	19.953	6517.83	373.976	6528.55	3.28388	169.771
49	15.849	6557.34	418.062	6570.66	3.64794	172.661
50	12.589	6597.1	467.2	6613.62	4.05087	175.301
51	10	6649.17	523.545	6669.75	4.50209	178.616
52	7.9433	6705.57	594.372	6731.86	5.06537	181.626
53	6.3096	6766.17	672.254	6799.49	5.67401	184.671
54	5.0119	6832.31	764.001	6874.89	6.38041	187.931
55	3.9811	6914.57	875.452	6969.77	7.21581	190.996
56	3.1623	6999.73	1001.61	7071.03	8.14335	194.076
57	2.5119	7107.34	1146.45	7199.21	9.16314	197.196
58	1.9953	7239.03	1341.48	7362.28	10.4985	200.557
59	1.5849	7302.73	1535.8	7462.48	11.8765	203.937
60	1.2589	7480.48	1774.89	7688.16	13.3477	207.277
61	1	7612.39	2056.68	7885.33	15.1189	213.297
62	0.79433	7790.2	2402.9	8152.37	17.1424	216.572
63	0.63096	7965.32	2794.48	8441.29	19.3324	220.662
64	0.50119	8170.27	3271.32	8800.84	21.8208	224.967
65	0.39811	8386.02	3860.37	9231.89	24.7182	230.022
66	0.31623	8644.09	4572.61	9779.01	27.8782	235.272
67	0.25119	8920.37	5454.64	10455.9	31.445	241.367
68	0.19953	9321.6	6540.22	11387.1	35.0543	248.107
69	0.15849	9719.71	7842.59	12489.2	38.8992	255.843
70	0.12589	10038.3	9421.62	13767.2	43.1849	266.618
71	0.1	10668.7	11368.6	15590.6	46.8192	277.233