File: data/20210121/Z_p53_1.txt
Index	Frequency (Hz)	Z' (Ω)	-Z'' (Ω)	Z (Ω)	-Phase (°)	Time (s)
1	1000000	3308.65	3534.62	4841.56	46.8912	19.7912
2	794330	4007.92	3408.46	5261.27	40.3789	22.2262
3	630960	4737.03	3402.91	5832.6	35.6921	24.3862
4	501190	5471.68	3394.25	6438.96	31.8126	26.0163
5	398110	6301.28	3314.31	7119.75	27.7432	33.0414
6	316230	6935.26	3200.73	7638.23	24.774	34.5514
7	251190	7353.48	2896.16	7903.25	21.497	40.7215
8	199530	7868.79	2716.33	8324.44	19.0448	42.5866
9	158490	8322.21	2507.65	8691.81	16.7686	44.8616
10	125890	8709.24	2283.24	9003.55	14.6902	49.2917
11	100000	9049.64	2060.34	9281.22	12.826	51.7517
12	79433	9326.89	1843.78	9507.39	11.1823	53.8018
13	63096	9564.97	1639.42	9704.45	9.72592	56.7168
14	50119	9758.64	1444.28	9864.94	8.4187	59.0669
15	39811	9930.89	1273.9	10012.3	7.30976	60.8469
16	31623	10063.9	1112.68	10125.2	6.3091	64.127
17	25119	10168.2	990.336	10216.4	5.56277	66.742
18	19953	10282	875.53	10319.2	4.8671	68.9171
19	15849	10367.4	776.829	10396.4	4.28518	71.0121
20	12589	10449.6	695.238	10472.8	3.8064	72.9971
21	10000	10517.8	620.954	10536.1	3.37873	81.4323
22	7943.3	10578.2	562.019	10593.1	3.04127	84.3424
23	6309.6	10633.1	510.517	10645.3	2.74878	87.3024
24	5011.9	10684.2	465.215	10694.3	2.49322	89.2124
25	3981.1	10741.4	434.991	10750.2	2.31902	91.3275
26	3162.3	10778.4	403.992	10786	2.14654	96.1626
27	2511.9	10827.4	379.236	10834	2.006	98.7126
28	1995.3	10870.2	357.174	10876.1	1.88194	100.723
29	1584.9	10911.4	342.222	10916.7	1.79642	102.463
30	1258.9	10951.4	327.808	10956.3	1.71452	105.143
31	1000	10990.5	315.308	10995	1.64331	108.413
32	794.33	11027.4	306.329	11031.7	1.5912	110.453
33	630.96	11073	300.994	11077.1	1.55707	112.258
34	501.19	11104.7	293.024	11108.6	1.51154	113.973
35	398.11	11153	292.957	11156.8	1.50465	116.833
36	316.23	11180.6	291.437	11184.4	1.49315	118.538
37	251.19	11224.2	289.634	11227.9	1.47816	120.443
38	199.53	11265.8	296.149	11269.6	1.50582	122.123
39	158.49	11298	302.51	11302.1	1.53376	123.843
40	125.89	11334.1	314.9	11338.4	1.59147	125.473
41	100	11369.6	326.083	11374.2	1.64281	127.393
42	79.433	11418.2	339.013	11423.2	1.70065	129.313
43	63.096	11458	363.793	11463.7	1.81854	131.353
44	50.119	11586.9	334.917	11591.7	1.65567	133.298
45	39.811	11547.7	418.288	11555.3	2.07449	142.968
46	31.623	11597.2	450.13	11605.9	2.22275	145.213
47	25.119	11640	487.937	11650.3	2.40036	147.429
48	19.953	11699.8	536.353	11712.1	2.62477	149.974
49	15.849	11749.7	594.289	11764.7	2.89551	152.459
50	12.589	11824.4	664.529	11843	3.21663	154.939
51	10	11875.1	751.888	11898.9	3.62291	157.749
52	7.9433	11950.6	841.59	11980.2	4.02825	160.604
53	6.3096	12038	956.503	12075.9	4.54302	163.534
54	5.0119	12116.9	1093.79	12166.1	5.15811	166.614
55	3.9811	12207	1265.88	12272.4	5.9205	169.529
56	3.1623	12308.4	1467.11	12395.5	6.79735	172.249
57	2.5119	12382.8	1718.02	12501.4	7.89896	175.244
58	1.9953	12746.4	2000.77	12902.4	8.92081	178.444
59	1.5849	12545.1	2407.86	12774.1	10.865	181.414
60	1.2589	12847	2732.87	13134.5	12.0092	184.924
61	1	13077.8	3287.98	13484.8	14.1127	190.539
62	0.79433	13342.1	3918.75	13905.7	16.3682	194.064
63	0.63096	13614.5	4628.78	14379.9	18.7775	198.129
64	0.50119	13932.3	5516.15	14984.5	21.5999	202.345
65	0.39811	14288.6	6659.33	15764.2	24.9883	206.84
66	0.31623	14756.5	7974.93	16773.6	28.3884	212.085
67	0.25119	15278.5	9468.81	17974.8	31.7884	218.995
68	0.19953	16056	11414.2	19699.7	35.409	225.865
69	0.15849	16869.6	13714.7	21741.1	39.1106	233.705
70	0.12589	17898.3	16300.8	24208.8	42.3256	242.71
71	0.1	18801.1	19432	27038.5	45.9453	264.321