File: data/20200504/Z_p38_1.txt
Index	Frequency (Hz)	Z' (Ω)	-Z'' (Ω)	Z (Ω)	-Phase (°)	Time (s)
1	1000000	3078.26	2049.97	3698.39	33.6617	60.7749
2	794330	3351.21	1837.63	3821.98	28.7381	62.1849
3	630960	3676.13	1693.84	4047.59	24.7387	63.64
4	501190	3988.2	1579.94	4289.75	21.6112	65.24
5	398110	4315.17	1441.21	4549.48	18.4687	66.705
6	316230	4558.12	1317.57	4744.72	16.1224	68.095
7	251190	4685.38	1124	4818.31	13.4901	69.3801
8	199530	4876.41	1021.1	4982.17	11.8266	70.8251
9	158490	5029.94	915.034	5112.49	10.3103	72.2551
10	125890	5158.1	814.272	5221.98	8.97083	73.6401
11	100000	5265.58	720.531	5314.65	7.79185	75.0502
12	79433	5350.79	635.366	5388.38	6.77173	76.3302
13	63096	5421.58	558.956	5450.32	5.8863	77.6952
14	50119	5484.43	491.984	5506.45	5.12603	79.0252
15	39811	5536.3	432.242	5553.15	4.46426	80.2853
16	31623	5577.21	379.527	5590.11	3.89295	81.6303
17	25119	5615.78	337.791	5625.93	3.44221	82.9453
18	19953	5645.53	301.974	5653.6	3.06178	84.2403
19	15849	5680.41	271.818	5686.91	2.73962	85.5704
20	12589	5707.53	245.951	5712.82	2.46749	86.9304
21	10000	5731.11	223.922	5735.48	2.23748	88.2104
22	7943.3	5754.34	205.972	5758.03	2.04998	89.5304
23	6309.6	5777.42	190.307	5780.55	1.88663	90.8655
24	5011.9	5797.17	178.034	5799.9	1.75903	92.2855
25	3981.1	5819.72	166.926	5822.11	1.64296	93.6105
26	3162.3	5839.62	157.167	5841.74	1.54168	94.8905
27	2511.9	5861.14	150.105	5863.06	1.46703	96.2406
28	1995.3	5876.43	143.425	5878.18	1.39814	97.5206
29	1584.9	5895.31	137.826	5896.92	1.33927	98.7806
30	1258.9	5911.34	134.179	5912.87	1.30031	100.106
31	1000	5930.97	129.436	5932.38	1.25021	101.561
32	794.33	5945.75	126.944	5947.1	1.22311	103.056
33	630.96	5964.33	125.361	5965.65	1.20409	104.451
34	501.19	5979.11	124.374	5980.4	1.19166	105.856
35	398.11	5997.07	124.685	5998.37	1.19106	107.231
36	316.23	6012.21	126.169	6013.54	1.2022	108.701
37	251.19	6026.05	128.69	6027.43	1.2234	110.076
38	199.53	6044.13	133.123	6045.6	1.26174	111.381
39	158.49	6058.75	138.306	6060.33	1.30769	112.696
40	125.89	6073.02	144.67	6074.75	1.36462	114.131
41	100	6092.85	152.537	6094.76	1.43412	115.511
42	79.433	6107.81	161.782	6109.95	1.51728	116.966
43	63.096	6132.25	173.501	6134.7	1.62065	118.411
44	50.119	6152.88	185.984	6155.69	1.73136	119.871
45	39.811	6175.67	200.434	6178.92	1.8589	129.096
46	31.623	6201.65	217.612	6205.47	2.00965	130.751
47	25.119	6227.95	237.228	6232.46	2.18139	132.401
48	19.953	6254.95	261.623	6260.42	2.39509	134.331
49	15.849	6288.91	286.359	6295.43	2.6071	136.341
50	12.589	6320.44	314.724	6328.27	2.85067	138.341
51	10	6357.22	349.799	6366.84	3.14946	140.661
52	7.9433	6391.5	386.525	6403.17	3.46074	143.001
53	6.3096	6430.38	432.629	6444.92	3.849	145.386
54	5.0119	6469.45	487.554	6487.8	4.30981	147.827
55	3.9811	6514.36	552.292	6537.73	4.84598	150.312
56	3.1623	6557.76	633.958	6588.34	5.52179	153.057
57	2.5119	6606.64	732.891	6647.17	6.33008	155.602
58	1.9953	6657.12	853.446	6711.61	7.30549	158.262
59	1.5849	6719.49	999.413	6793.4	8.45979	161.022
60	1.2589	6767.21	1179.55	6869.25	9.88751	163.887
61	1	6846.11	1413.45	6990.5	11.6654	167.177
62	0.79433	6934.18	1668.23	7132.02	13.5272	170.412
63	0.63096	7033.36	2009.28	7314.74	15.9435	173.942
64	0.50119	7128.34	2400.21	7521.58	18.6091	177.777
65	0.39811	7262.82	2926.57	7830.28	21.9471	182.132
66	0.31623	7419	3522.45	8212.75	25.3978	186.997
67	0.25119	7580.17	4321.53	8725.51	29.6879	192.462
68	0.19953	7785.91	5216.2	9371.72	33.8203	198.792
69	0.15849	8062.04	6346.18	10260.1	38.2087	206.143
70	0.12589	8487.23	7694.76	11456.1	42.1963	214.728
71	0.1	8792.85	9238.73	12754.1	46.4165	224.968