File: data/20200504/Z_p33_2.txt
Index	Frequency (Hz)	Z' (Ω)	-Z'' (Ω)	Z (Ω)	-Phase (°)	Time (s)
1	1000000	2815.83	1891.84	3392.34	33.8956	340.622
2	794330	3082.1	1708.75	3524.08	29.0045	341.997
3	630960	3392.12	1589.17	3745.92	25.1025	343.497
4	501190	3690.41	1465.5	3970.75	21.6585	345.032
5	398110	3982.8	1317.14	4194.94	18.2994	346.562
6	316230	4203.52	1200.48	4371.58	15.9388	348.087
7	251190	4311.59	1032.57	4433.51	13.468	350.467
8	199530	4483.36	934.134	4579.64	11.7695	351.757
9	158490	4627.29	837.023	4702.39	10.2533	353.127
10	125890	4739.57	743.313	4797.5	8.91317	354.462
11	100000	4836.93	658.613	4881.56	7.75391	355.852
12	79433	4914.85	580.974	4949.07	6.74152	357.187
13	63096	4979.57	511.762	5005.8	5.86781	358.562
14	50119	5036.23	450.893	5056.38	5.11603	360.047
15	39811	5081.86	396.411	5097.3	4.46032	361.577
16	31623	5119.65	349.455	5131.56	3.90481	362.897
17	25119	5154.85	312.386	5164.3	3.46791	364.182
18	19953	5186.09	280.209	5193.65	3.09274	365.457
19	15849	5213.49	252.495	5219.6	2.77273	366.827
20	12589	5240.24	229.964	5245.28	2.51277	368.152
21	10000	5263.92	210.356	5268.12	2.28843	369.407
22	7943.3	5286.36	194.369	5289.93	2.1057	370.682
23	6309.6	5308.91	181.218	5312	1.95502	371.962
24	5011.9	5327.16	170.293	5329.88	1.83095	373.302
25	3981.1	5349.53	161.271	5351.96	1.72676	374.548
26	3162.3	5368.84	153.842	5371.04	1.64134	375.828
27	2511.9	5383.84	147.713	5385.87	1.57159	377.088
28	1995.3	5403.25	143.185	5405.15	1.51797	378.453
29	1584.9	5424.91	139.746	5426.71	1.47561	379.758
30	1258.9	5439.73	136.42	5441.44	1.43659	381.073
31	1000	5456.77	135.118	5458.44	1.41844	382.543
32	794.33	5476.01	134.234	5477.65	1.40421	383.893
33	630.96	5491.09	135.096	5492.76	1.40935	385.243
34	501.19	5509.12	136.578	5510.81	1.42014	387.358
35	398.11	5526.54	139.395	5528.3	1.44486	388.538
36	316.23	5544.86	144.056	5546.73	1.48821	389.953
37	251.19	5562.21	150.202	5564.23	1.54684	391.383
38	199.53	5579.26	157.559	5581.48	1.61761	392.648
39	158.49	5596.75	167.205	5599.24	1.71122	394.058
40	125.89	5618.22	178.572	5621.06	1.8205	395.433
41	100	5636.51	191.884	5639.77	1.94977	396.773
42	79.433	5660.59	208.59	5664.43	2.11037	398.123
43	63.096	5685.72	227.464	5690.27	2.29097	399.633
44	50.119	5713.47	249.17	5718.9	2.49715	400.973
45	39.811	5742.13	273.971	5748.66	2.73165	410.108
46	31.623	5778.88	302.4	5786.79	2.99547	411.988
47	25.119	5815.69	334.147	5825.28	3.28837	413.558
48	19.953	5854.78	371.623	5866.57	3.63188	415.473
49	15.849	5898.47	412.218	5912.85	3.99765	418.203
50	12.589	5949.11	457.191	5966.65	4.39456	420.123
51	10	6000.46	510.602	6022.15	4.8638	422.333
52	7.9433	6058.71	569.383	6085.41	5.36875	424.648
53	6.3096	6119.42	637.908	6152.58	5.9512	427.028
54	5.0119	6187.52	719.734	6229.24	6.63484	429.379
55	3.9811	6260.82	811.331	6313.17	7.38373	431.774
56	3.1623	6338.9	920.401	6405.37	8.26155	434.214
57	2.5119	6423.11	1054.06	6509.03	9.31941	436.769
58	1.9953	6517.08	1210.93	6628.63	10.526	439.464
59	1.5849	6620.25	1391.31	6764.87	11.8686	442.294
60	1.2589	6724.19	1619.9	6916.56	13.5448	445.199
61	1	6856.81	1894.1	7113.61	15.4421	450.149
62	0.79433	7010.42	2215.52	7352.18	17.5382	453.309
63	0.63096	7152.35	2615.45	7615.55	20.0863	456.774
64	0.50119	7337.01	3097.36	7964	22.8873	460.694
65	0.39811	7522.14	3696.32	8381.26	26.1691	465.004
66	0.31623	7784.32	4412.63	8948.01	29.5473	469.864
67	0.25119	8015.07	5261	9587.46	33.2804	475.369
68	0.19953	8346.19	6269.75	10438.8	36.9143	481.61
69	0.15849	8716.87	7563.54	11540.8	40.9479	488.88
70	0.12589	9242.22	9153.87	13008.2	44.7248	497.415
71	0.1	9763.71	10859	14603	48.0401	507.64