File: data/20200504/Z_p34_1.txt
Index	Frequency (Hz)	Z' (Ω)	-Z'' (Ω)	Z (Ω)	-Phase (°)	Time (s)
1	1000000	3001.76	2079.89	3651.92	34.7178	140.225
2	794330	3293.99	1873.14	3789.33	29.6249	141.635
3	630960	3639.41	1733.25	4031.07	25.4659	143.19
4	501190	3947.29	1632.37	4271.5	22.4672	144.74
5	398110	4299.32	1480.03	4546.94	18.9959	146.11
6	316230	4547.57	1352.39	4744.4	16.5618	147.516
7	251190	4677.5	1161.67	4819.6	13.9473	149.766
8	199530	4875.26	1056.83	4988.5	12.231	151.181
9	158490	5035.72	948.607	5124.29	10.6681	152.611
10	125890	5166.82	845.324	5235.51	9.29164	153.976
11	100000	5275.15	749.003	5328.06	8.08124	155.346
12	79433	5368.33	662.745	5409.08	7.03782	156.606
13	63096	5440.9	584.158	5472.16	6.12804	158.056
14	50119	5506.82	515.175	5530.87	5.34458	159.466
15	39811	5563.61	454.021	5582.1	4.66531	160.846
16	31623	5608.86	399.503	5623.07	4.07413	162.126
17	25119	5646.59	356.563	5657.83	3.61324	163.396
18	19953	5682.24	319.869	5691.24	3.22193	164.826
19	15849	5715.91	288.004	5723.16	2.88448	166.181
20	12589	5743.83	260.993	5749.76	2.60167	167.456
21	10000	5769.52	238.058	5774.43	2.36276	168.706
22	7943.3	5798.99	219.091	5803.13	2.16365	170.041
23	6309.6	5821.72	203.658	5825.28	2.00353	171.531
24	5011.9	5846.84	189.778	5849.91	1.85907	172.826
25	3981.1	5869.27	178.213	5871.98	1.73918	174.076
26	3162.3	5891.14	168.656	5893.55	1.63986	175.331
27	2511.9	5909.15	160.767	5911.34	1.55843	176.736
28	1995.3	5929.03	154.379	5931.04	1.49152	178.121
29	1584.9	5948.93	149.347	5950.81	1.4381	179.391
30	1258.9	5967.81	145.25	5969.58	1.39424	180.716
31	1000	5984.98	141.526	5986.65	1.35462	181.991
32	794.33	6006.55	139.841	6008.18	1.33368	183.361
33	630.96	6023.58	138.54	6025.18	1.31754	184.661
34	501.19	6041.65	139.066	6043.25	1.3186	186.196
35	398.11	6057.9	140.742	6059.53	1.33091	187.411
36	316.23	6076.58	143.638	6078.27	1.3541	188.696
37	251.19	6093.14	148.198	6094.94	1.39328	190.091
38	199.53	6109.23	155.145	6111.2	1.45473	191.471
39	158.49	6129.24	163.047	6131.41	1.52379	192.886
40	125.89	6144.49	172.979	6146.92	1.61256	194.286
41	100	6163.82	185.579	6166.61	1.72453	195.581
42	79.433	6191.21	201.304	6194.48	1.86229	196.996
43	63.096	6213.12	219.28	6216.99	2.0213	198.581
44	50.119	6242.86	239.665	6247.46	2.19852	200.016
45	39.811	6271.3	263.47	6276.83	2.4057	209.332
46	31.623	6300.42	291.741	6307.17	2.65119	211.092
47	25.119	6337.92	321.901	6346.09	2.90754	212.612
48	19.953	6378.84	359.443	6388.95	3.22517	214.482
49	15.849	6420.84	400.611	6433.32	3.57019	216.632
50	12.589	6467.43	444.326	6482.68	3.93016	218.712
51	10	6515.73	496.189	6534.6	4.35481	220.952
52	7.9433	6576.73	554.547	6600.07	4.81975	223.312
53	6.3096	6635.44	620.649	6664.4	5.34364	225.752
54	5.0119	6698.03	697.855	6734.29	5.94807	228.147
55	3.9811	6772.63	790.288	6818.58	6.65566	230.492
56	3.1623	6849.2	894.819	6907.41	7.44329	233.092
57	2.5119	6927.24	1023.93	7002.5	8.4081	235.727
58	1.9953	7011.9	1177.58	7110.09	9.53331	238.392
59	1.5849	7112.29	1357.05	7240.59	10.8024	241.317
60	1.2589	7213.98	1585.18	7386.09	12.393	244.202
61	1	7340.14	1854.89	7570.88	14.182	249.377
62	0.79433	7493.68	2173.86	7802.63	16.177	252.437
63	0.63096	7622.74	2565.22	8042.79	18.5992	255.988
64	0.50119	7800.18	3045.13	8373.51	21.3253	259.828
65	0.39811	7989.4	3647.57	8782.67	24.5391	264.008
66	0.31623	8237.49	4338.7	9310.24	27.7759	268.873
67	0.25119	8448.44	5210.76	9926.14	31.6651	274.373
68	0.19953	8762.18	6224.13	10747.8	35.3877	280.653
69	0.15849	9131.45	7490.12	11810.4	39.3605	288.073
70	0.12589	9629.78	9077.82	13234	43.31	296.723
71	0.1	10163.5	10778.3	14814.5	46.6818	306.983