File: data/20200504/Z_p33_3.txt
Index	Frequency (Hz)	Z' (Ω)	-Z'' (Ω)	Z (Ω)	-Phase (°)	Time (s)
1	1000000	2829.68	1878.43	3396.41	33.5775	601.646
2	794330	3086.2	1702.73	3524.76	28.8866	603.707
3	630960	3388.45	1574.88	3736.56	24.928	605.743
4	501190	3688.5	1454.97	3965.1	21.5273	607.974
5	398110	3980.94	1315.49	4192.66	18.2861	610.035
6	316230	4198.66	1200.64	4366.96	15.9583	612.111
7	251190	4309.6	1031.16	4431.25	13.4562	615.668
8	199530	4487.02	936.065	4583.62	11.7838	617.579
9	158490	4625.71	837.969	4701	10.268	619.625
10	125890	4740.52	743.468	4798.47	8.91323	621.586
11	100000	4836.18	657.561	4880.67	7.74286	623.632
12	79433	4914.43	579.972	4948.54	6.73058	625.533
13	63096	4980.11	510.983	5006.26	5.85832	627.599
14	50119	5035.96	450.167	5056.04	5.10812	629.735
15	39811	5083.34	396.046	5098.74	4.45495	631.651
16	31623	5119.94	349.081	5131.83	3.90043	633.667
17	25119	5154.85	311.849	5164.28	3.46196	635.578
18	19953	5185.51	279.568	5193.04	3.08602	637.469
19	15849	5213.43	252.697	5219.55	2.77497	639.4
20	12589	5242.25	229.427	5247.27	2.50595	641.306
21	10000	5262.41	210.044	5266.6	2.28569	643.262
22	7943.3	5287.65	194.395	5291.22	2.10547	645.318
23	6309.6	5308.19	181.445	5311.29	1.95772	647.454
24	5011.9	5328.96	170.146	5331.68	1.82875	649.5
25	3981.1	5348.73	161.161	5351.15	1.72584	651.511
26	3162.3	5366.75	153.651	5368.95	1.63994	653.407
27	2511.9	5386.34	147.922	5388.38	1.57308	655.504
28	1995.3	5405.3	142.819	5407.19	1.51352	657.41
29	1584.9	5422.77	139.261	5424.56	1.47108	659.306
30	1258.9	5439.64	136.152	5441.34	1.4338	661.232
31	1000	5459.08	134.911	5460.75	1.41567	663.283
32	794.33	5473.85	134.467	5475.5	1.40721	665.359
33	630.96	5492.53	134.706	5494.18	1.40492	667.25
34	501.19	5510.02	136.8	5511.71	1.42222	669.276
35	398.11	5527.02	139.638	5528.78	1.44725	671.262
36	316.23	5544	143.959	5545.87	1.48744	673.348
37	251.19	5562.44	149.626	5564.45	1.54085	675.359
38	199.53	5579.97	157.332	5582.19	1.61507	677.295
39	158.49	5598.16	166.853	5600.65	1.70719	679.226
40	125.89	5613.92	178.455	5616.75	1.8207	681.262
41	100	5637.46	192.067	5640.73	1.9513	683.358
42	79.433	5661.71	208.603	5665.55	2.11008	685.529
43	63.096	5685.28	228.185	5689.86	2.29839	687.75
44	50.119	5714.66	250.292	5720.14	2.50786	689.836
45	39.811	5744.18	273.579	5750.69	2.72677	699.687
46	31.623	5775.88	301.673	5783.75	2.98983	701.928
47	25.119	5816.98	334.138	5826.57	3.28756	704.089
48	19.953	5857.39	371.313	5869.15	3.62725	706.615
49	15.849	5899.73	411.739	5914.08	3.99217	709.167
50	12.589	5947.36	458.582	5965.01	4.40917	711.743
51	10	6000.88	511.156	6022.61	4.86871	714.634
52	7.9433	6058.36	571.134	6085.22	5.38548	717.715
53	6.3096	6125.42	640.9	6158.86	5.97309	720.716
54	5.0119	6189.56	720.588	6231.36	6.64047	723.862
55	3.9811	6261.71	813.287	6314.3	7.4003	726.978
56	3.1623	6340.2	921.732	6406.85	8.27166	730.129
57	2.5119	6427.89	1056.82	6514.19	9.33654	733.36
58	1.9953	6515.31	1211.1	6626.91	10.5303	736.726
59	1.5849	6625.52	1398.6	6771.53	11.9197	740.197
60	1.2589	6734.29	1620.78	6926.59	13.5323	743.738
61	1	6861.31	1896.36	7118.55	15.45	750.05
62	0.79433	7007.36	2226.43	7352.56	17.6265	753.811
63	0.63096	7167.88	2598.51	7624.35	19.9267	757.987
64	0.50119	7321.06	3095.53	7948.6	22.9198	762.549
65	0.39811	7522.18	3697.01	8381.59	26.1733	767.54
66	0.31623	7763.36	4373.46	8910.49	29.3946	773.081
67	0.25119	8026.08	5246.52	9588.74	33.172	779.282
68	0.19953	8428.05	6300.77	10522.9	36.7816	786.218
69	0.15849	8804.44	7593.94	11627	40.7782	794.159
70	0.12589	9280.54	9133.5	13021.1	44.5425	803.615
71	0.1	9841.28	10882.5	14672.4	47.8764	814.646