File: data/20200504/Z_p33_1.txt
Index	Frequency (Hz)	Z' (Ω)	-Z'' (Ω)	Z (Ω)	-Phase (°)	Time (s)
1	1000000	2797.81	1903.27	3383.81	34.2264	30.0443
2	794330	3067.67	1728.05	3520.9	29.393	31.8594
3	630960	3389.88	1601.37	3749.09	25.286	33.2794
4	501190	3682.72	1495.71	3974.87	22.1042	34.8694
5	398110	3992.35	1320.36	4205.02	18.3002	36.3094
6	316230	4211.49	1203.87	4380.17	15.9528	37.6645
7	251190	4316.17	1042.92	4440.38	13.584	39.9245
8	199530	4489.57	944.074	4587.76	11.8752	41.2795
9	158490	4632.6	844.64	4708.97	10.333	42.5596
10	125890	4747.03	748.172	4805.63	8.95661	43.7946
11	100000	4842.77	663.108	4887.95	7.79688	45.1496
12	79433	4921.79	584.572	4956.39	6.77341	46.5746
13	63096	4985.04	514.474	5011.52	5.89227	47.8947
14	50119	5041.34	452.996	5061.65	5.1346	49.2547
15	39811	5089.06	398.124	5104.61	4.47321	50.6397
16	31623	5125.85	350.984	5137.86	3.91712	52.0047
17	25119	5161.47	313.679	5170.99	3.47777	53.4148
18	19953	5192.62	281.498	5200.24	3.10304	54.8148
19	15849	5222.29	253.729	5228.45	2.78157	56.1398
20	12589	5247.83	230.282	5252.88	2.5126	57.4498
21	10000	5270.29	211.013	5274.52	2.29279	58.7999
22	7943.3	5293.78	195.192	5297.38	2.11165	60.0899
23	6309.6	5316.4	181.596	5319.5	1.95633	61.5099
24	5011.9	5336.37	170.608	5339.1	1.83117	62.8299
25	3981.1	5354.54	161.602	5356.98	1.72868	64.165
26	3162.3	5371.97	154.178	5374.19	1.64396	65.495
27	2511.9	5392.37	147.892	5394.4	1.57101	66.875
28	1995.3	5408.26	142.873	5410.14	1.51327	68.135
29	1584.9	5429.46	139.655	5431.25	1.47342	69.355
30	1258.9	5447	136.384	5448.7	1.4343	70.6001
31	1000	5462.05	135.045	5463.72	1.4163	71.9001
32	794.33	5481.15	134.79	5482.81	1.40871	73.3501
33	630.96	5500.86	134.94	5502.51	1.40523	74.5851
34	501.19	5514.89	136.407	5516.57	1.41688	75.9302
35	398.11	5531.94	139.845	5533.7	1.44811	77.1902
36	316.23	5547.96	143.731	5549.82	1.48403	78.5502
37	251.19	5567.2	149.954	5569.22	1.5429	79.8702
38	199.53	5584.41	157.314	5586.62	1.61361	81.2303
39	158.49	5602.45	167.278	5604.95	1.71023	82.5453
40	125.89	5623.4	178.458	5626.23	1.81767	83.9403
41	100	5641.33	192.102	5644.6	1.95031	85.3153
42	79.433	5663.43	208.109	5667.26	2.10445	86.6654
43	63.096	5690.26	227.393	5694.8	2.28843	88.1154
44	50.119	5718	249.351	5723.44	2.49698	89.5554
45	39.811	5747.12	273.766	5753.64	2.72725	98.8056
46	31.623	5781.69	301.964	5789.57	2.9897	100.336
47	25.119	5816.68	334.065	5826.26	3.28701	101.991
48	19.953	5856.16	371.308	5867.92	3.62797	103.826
49	15.849	5903.17	411.154	5917.47	3.9842	105.841
50	12.589	5951.18	458.19	5968.79	4.4026	107.836
51	10	6003.93	509.864	6025.54	4.85401	110.181
52	7.9433	6060.47	571.412	6087.35	5.38621	112.426
53	6.3096	6122.87	638.494	6156.07	5.9533	114.811
54	5.0119	6190.41	719.022	6232.02	6.62528	117.206
55	3.9811	6262.95	809.802	6315.09	7.36749	119.566
56	3.1623	6338.76	919.897	6405.16	8.25726	122.056
57	2.5119	6428.45	1053.7	6514.24	9.30868	124.616
58	1.9953	6516.21	1208.29	6627.29	10.505	127.231
59	1.5849	6622.88	1396.02	6768.41	11.903	129.961
60	1.2589	6725.78	1619.78	6918.08	13.5408	132.781
61	1	6861.04	1892.4	7117.23	15.4199	137.836
62	0.79433	7014.78	2215.18	7356.23	17.5255	140.971
63	0.63096	7151.96	2607.03	7612.31	20.0278	144.521
64	0.50119	7336.28	3095.23	7962.5	22.8752	148.362
65	0.39811	7519.25	3684.65	8373.51	26.1062	152.697
66	0.31623	7787.69	4406.39	8947.87	29.5018	157.462
67	0.25119	8016.2	5257.36	9586.41	33.2585	162.787
68	0.19953	8343.72	6275.4	10440.2	36.9472	169.067
69	0.15849	8723.22	7559.01	11542.7	40.9102	176.342
70	0.12589	9259.62	9118.04	12995.4	44.5586	185.017
71	0.1	9746.21	10828.2	14568.4	48.0104	195.197