File: data/20200504/Z_p38_2.txt
Index	Frequency (Hz)	Z' (Ω)	-Z'' (Ω)	Z (Ω)	-Phase (°)	Time (s)
1	1000000	3077.55	2052.83	3699.38	33.7047	353.838
2	794330	3351.86	1839.66	3823.52	28.76	355.208
3	630960	3687.79	1695.15	4058.74	24.6866	356.603
4	501190	3984.26	1576.97	4285	21.5936	358.148
5	398110	4317.03	1440.19	4550.93	18.4491	359.578
6	316230	4563.34	1318.25	4749.93	16.1129	360.973
7	251190	4684.4	1123.36	4817.21	13.4853	362.263
8	199530	4878.46	1020.52	4984.05	11.8152	363.703
9	158490	5034.08	915.622	5116.67	10.3085	365.123
10	125890	5160.25	813.693	5224.01	8.96089	366.438
11	100000	5263.16	719.605	5312.12	7.78549	367.858
12	79433	5353.79	635.347	5391.36	6.76777	369.153
13	63096	5425.61	559.193	5454.35	5.88444	370.538
14	50119	5485.8	491.844	5507.81	5.1233	371.973
15	39811	5538.33	432.078	5555.16	4.46095	373.289
16	31623	5577.83	379.483	5590.73	3.89207	374.574
17	25119	5614.76	337.521	5624.9	3.44008	375.854
18	19953	5649.1	302.398	5657.19	3.06413	377.174
19	15849	5677.92	271.624	5684.42	2.73886	378.509
20	12589	5707.14	245.561	5712.42	2.46374	379.824
21	10000	5732.86	223.836	5737.23	2.23594	381.144
22	7943.3	5753.62	205.841	5757.3	2.04894	382.464
23	6309.6	5778.95	190.382	5782.09	1.88688	383.754
24	5011.9	5799.82	177.419	5802.53	1.75216	385.119
25	3981.1	5820.46	166.477	5822.84	1.63833	386.399
26	3162.3	5840.29	157.123	5842.4	1.54108	387.694
27	2511.9	5859.91	149.764	5861.82	1.46401	389.029
28	1995.3	5879.3	142.833	5881.03	1.39168	390.309
29	1584.9	5897.03	137.41	5898.63	1.33484	391.504
30	1258.9	5913	133.28	5914.5	1.29124	392.819
31	1000	5931.56	129.339	5932.97	1.24915	394.159
32	794.33	5949.7	126.312	5951.04	1.21621	395.564
33	630.96	5964.19	124.472	5965.48	1.19558	396.864
34	501.19	5980.63	123.842	5981.91	1.18627	398.184
35	398.11	5995.23	123.306	5996.49	1.17826	399.484
36	316.23	6009.99	125.03	6011.29	1.19179	400.759
37	251.19	6026.83	127.428	6028.17	1.21125	402.129
38	199.53	6042.51	130.873	6043.93	1.24076	403.499
39	158.49	6058.52	136.255	6060.06	1.28836	404.854
40	125.89	6072.86	142.5	6074.54	1.3442	406.229
41	100	6089.31	149.726	6091.15	1.40852	407.614
42	79.433	6110.59	159.35	6112.67	1.4938	409.029
43	63.096	6128.04	169.693	6130.39	1.58619	410.489
44	50.119	6151.3	182.501	6154.01	1.69939	411.839
45	39.811	6171.31	197.611	6174.47	1.83403	421.029
46	31.623	6199.61	213.759	6203.3	1.97475	422.664
47	25.119	6224.41	231.304	6228.71	2.12818	424.254
48	19.953	6250.52	254.937	6255.71	2.33561	426.154
49	15.849	6282.76	280.422	6289.01	2.55562	428.12
50	12.589	6314.41	312.109	6322.12	2.82971	430.1
51	10	6349.24	342.635	6358.48	3.08895	432.445
52	7.9433	6386.64	380.064	6397.94	3.40562	434.77
53	6.3096	6422.38	425.143	6436.44	3.78729	437.075
54	5.0119	6460.44	479.124	6478.18	4.24145	439.515
55	3.9811	6499.81	543.542	6522.5	4.7802	441.985
56	3.1623	6547.13	622.925	6576.7	5.43503	444.455
57	2.5119	6590.05	718.599	6629.12	6.22312	447.01
58	1.9953	6637.2	840.985	6690.27	7.22134	449.695
59	1.5849	6696.74	986.156	6768.96	8.37712	452.67
60	1.2589	6755.1	1169.43	6855.58	9.82162	455.49
61	1	6827.93	1387.81	6967.54	11.4892	458.705
62	0.79433	6918.27	1661.09	7114.9	13.5013	461.93
63	0.63096	6991.21	1974.25	7264.62	15.7692	465.365
64	0.50119	7101.81	2397.76	7495.66	18.656	469.21
65	0.39811	7205.96	2901.87	7768.31	21.9348	473.425
66	0.31623	7399.05	3514.98	8191.52	25.4104	478.15
67	0.25119	7536.34	4260.61	8657.32	29.4813	483.576
68	0.19953	7756.96	5131.42	9300.64	33.4856	489.861
69	0.15849	8017.26	6261.19	10172.5	37.9885	497.151
70	0.12589	8421.57	7647.02	11375.4	42.2403	505.686
71	0.1	8785.95	9144.25	12681.1	46.1448	515.861