File: data/20200504/Z_p37_2.txt
Index	Frequency (Hz)	Z' (Ω)	-Z'' (Ω)	Z (Ω)	-Phase (°)	Time (s)
1	1000000	3363.08	2364.71	4111.23	35.1125	307.239
2	794330	3677.97	2125.57	4248	30.0245	308.679
3	630960	4078.46	1970	4529.32	25.7818	310.094
4	501190	4446.65	1822.85	4805.78	22.2906	311.709
5	398110	4849.73	1694.58	5137.26	19.2602	313.109
6	316230	5141.58	1555.42	5371.7	16.8315	314.664
7	251190	5296.01	1336.52	5462.05	14.1636	315.964
8	199530	5524.87	1218.82	5657.71	12.4405	317.359
9	158490	5713.97	1098.35	5818.58	10.8808	318.754
10	125890	5866.92	980.723	5948.32	9.48991	320.1
11	100000	5993.74	870.574	6056.63	8.26426	321.55
12	79433	6102.83	771.086	6151.35	7.2011	322.905
13	63096	6191.57	681.116	6228.92	6.2777	324.375
14	50119	6267.04	601.003	6295.79	5.47786	325.82
15	39811	6330.02	529.538	6352.13	4.78195	327.13
16	31623	6382.76	466.791	6399.81	4.18277	328.5
17	25119	6430.96	417.709	6444.51	3.7163	329.815
18	19953	6473.95	374.211	6484.75	3.30816	331.125
19	15849	6509.86	337.384	6518.59	2.96679	332.44
20	12589	6545.47	306.732	6552.66	2.68301	333.785
21	10000	6575.94	280.692	6581.92	2.44417	335.135
22	7943.3	6606.83	259.967	6611.94	2.25333	336.445
23	6309.6	6637.43	242.698	6641.87	2.09409	337.715
24	5011.9	6661.73	228.485	6665.64	1.96437	339
25	3981.1	6689.62	216.426	6693.12	1.85301	340.405
26	3162.3	6716.05	206.746	6719.23	1.76323	341.78
27	2511.9	6739.35	199.662	6742.31	1.69696	343.06
28	1995.3	6761.11	194.179	6763.9	1.64508	344.375
29	1584.9	6787.54	190.424	6790.21	1.60701	345.6
30	1258.9	6814.32	187.666	6816.91	1.57752	346.92
31	1000	6835.02	187.317	6837.58	1.56983	348.265
32	794.33	6857.74	187.841	6860.31	1.569	349.61
33	630.96	6885.13	189.921	6887.74	1.58006	350.915
34	501.19	6907.31	194.416	6910.04	1.61225	352.35
35	398.11	6932.94	200.439	6935.84	1.65602	353.75
36	316.23	6956.72	208.398	6959.84	1.71586	355.115
37	251.19	6983.5	217.612	6986.89	1.78481	356.445
38	199.53	7009.55	230.771	7013.35	1.88563	357.695
39	158.49	7036.99	246.421	7041.3	2.00556	359.14
40	125.89	7066.42	264.507	7071.36	2.14367	360.55
41	100	7094.85	286.172	7100.62	2.30978	361.99
42	79.433	7133.58	311.262	7140.37	2.49842	363.315
43	63.096	7170.4	340.345	7178.48	2.71752	364.8
44	50.119	7212.53	373.547	7222.2	2.96478	366.195
45	39.811	7261.14	409.912	7272.7	3.23108	375.406
46	31.623	7312.34	451.254	7326.25	3.53132	377.131
47	25.119	7370.2	496.238	7386.89	3.85193	378.786
48	19.953	7436.43	549.637	7456.72	4.22712	380.706
49	15.849	7506.26	604.769	7530.58	4.6063	382.666
50	12.589	7579.07	666.466	7608.31	5.02538	384.711
51	10	7658.15	735.034	7693.34	5.4825	387.041
52	7.9433	7750.74	813.196	7793.28	5.98947	389.436
53	6.3096	7847.68	902.9	7899.45	6.5632	391.846
54	5.0119	7941.15	1003.12	8004.26	7.19942	394.271
55	3.9811	8051.47	1120.49	8129.07	7.92274	396.666
56	3.1623	8167.12	1254.94	8262.98	8.73561	399.236
57	2.5119	8289.15	1421.4	8410.14	9.7303	401.811
58	1.9953	8419.76	1617.73	8573.76	10.876	404.526
59	1.5849	8560.53	1843.81	8756.84	12.1549	407.266
60	1.2589	8710.48	2131.89	8967.57	13.7528	410.071
61	1	8888.63	2474.72	9226.7	15.558	415.111
62	0.79433	9080.81	2882.37	9527.28	17.6102	418.226
63	0.63096	9309.88	3368.03	9900.37	19.8886	421.866
64	0.50119	9522.62	3953.88	10310.8	22.5487	425.751
65	0.39811	9809.88	4697.52	10876.6	25.5877	429.927
66	0.31623	10097.3	5609.37	11550.7	29.0536	434.612
67	0.25119	10535.8	6655.85	12462.1	32.2821	439.962
68	0.19953	11029.5	7976.75	13611.7	35.8753	446.222
69	0.15849	11561.7	9495.66	14961.3	39.3963	453.577
70	0.12589	12101.6	11357.2	16596.3	43.1825	462.132
71	0.1	12985.5	13762.1	18921.4	46.6631	472.282