File: data/20200504/Z_p36_3.txt
Index	Frequency (Hz)	Z' (Ω)	-Z'' (Ω)	Z (Ω)	-Phase (°)	Time (s)
1	1000000	2933.98	1828.75	3457.25	31.9354	686.629
2	794330	3156.12	1640.62	3557.07	27.4663	688.825
3	630960	3444.94	1500.42	3757.51	23.5353	691.031
4	501190	3712.14	1376.85	3959.26	20.35	693.432
5	398110	3990.88	1245.5	4180.72	17.3324	695.678
6	316230	4197.39	1127.38	4346.16	15.0343	697.844
7	251190	4296.4	949.965	4400.17	12.4679	701.686
8	199530	4456.62	857.797	4538.42	10.8949	703.762
9	158490	4582.86	761.862	4645.75	9.43862	705.978
10	125890	4687.3	672.764	4735.33	8.16783	708.11
11	100000	4772.03	590.773	4808.46	7.05725	710.311
12	79433	4839.39	517.569	4866.98	6.10454	712.357
13	63096	4896.29	451.452	4917.05	5.26794	714.643
14	50119	4943.27	395.18	4959.04	4.57068	716.924
15	39811	4985.1	345.477	4997.06	3.96437	719.19
16	31623	5016.45	301.969	5025.53	3.44481	721.281
17	25119	5044.24	268.138	5051.36	3.04283	723.362
18	19953	5068.65	238.83	5074.27	2.69773	725.548
19	15849	5092.43	214.192	5096.93	2.4085	727.769
20	12589	5115.71	194.078	5119.39	2.17262	729.925
21	10000	5132.06	177.389	5135.12	1.97963	732.101
22	7943.3	5152.02	163.643	5154.62	1.81926	734.167
23	6309.6	5171.79	152.451	5174.04	1.68844	736.238
24	5011.9	5186.57	142.951	5188.54	1.57877	738.389
25	3981.1	5203.03	134.837	5204.78	1.48449	740.58
26	3162.3	5219.11	128.502	5220.69	1.41042	742.671
27	2511.9	5233.19	122.939	5234.63	1.34575	744.822
28	1995.3	5250.05	118.884	5251.4	1.2972	746.968
29	1584.9	5266.95	115.284	5268.21	1.2539	748.909
30	1258.9	5278.97	112.893	5280.18	1.2251	751.035
31	1000	5294.86	110.882	5296.02	1.19968	753.221
32	794.33	5307.27	109.41	5308.4	1.18099	755.372
33	630.96	5324.47	109.201	5325.59	1.17493	757.473
34	501.19	5339.78	110.09	5340.92	1.1811	759.579
35	398.11	5349.67	111.92	5350.84	1.1985	761.576
36	316.23	5365.53	114.47	5366.75	1.22218	763.552
37	251.19	5378.31	119.15	5379.63	1.26911	765.773
38	199.53	5392.7	124.625	5394.14	1.32387	767.959
39	158.49	5407.62	131.957	5409.23	1.39785	770.125
40	125.89	5422.32	140.307	5424.14	1.48225	772.206
41	100	5439.13	151.229	5441.23	1.59263	774.462
42	79.433	5456.12	162.753	5458.54	1.70859	776.613
43	63.096	5478.03	178.289	5480.93	1.8641	778.914
44	50.119	5498.21	193.27	5501.61	2.0132	781.07
45	39.811	5520.99	211.61	5525.04	2.19498	790.976
46	31.623	5545.6	233.755	5550.53	2.41367	793.372
47	25.119	5573.46	256.604	5579.36	2.63605	795.853
48	19.953	5605.06	287.138	5612.41	2.93261	798.479
49	15.849	5641.24	319.277	5650.27	3.23931	801.145
50	12.589	5676.62	354.516	5687.67	3.5736	803.966
51	10	5714.02	396.439	5727.75	3.96883	806.957
52	7.9433	5756.11	445.575	5773.33	4.42638	810.048
53	6.3096	5802.73	502.281	5824.43	4.94716	813.154
54	5.0119	5848.13	569.078	5875.76	5.55792	816.346
55	3.9811	5899.12	648.273	5934.64	6.27124	819.432
56	3.1623	5959.02	744.337	6005.33	7.1199	822.723
57	2.5119	6018.88	861.436	6080.21	8.145	826.004
58	1.9953	6083.05	995.613	6163.98	9.29519	829.4
59	1.5849	6162.77	1161.33	6271.23	10.6719	833.061
60	1.2589	6239.76	1362.17	6386.72	12.3147	836.632
61	1	6324.63	1618.91	6528.54	14.3577	840.633
62	0.79433	6433.44	1915.57	6712.57	16.581	844.689
63	0.63096	6545.83	2265.71	6926.86	19.0923	849.035
64	0.50119	6635.28	2702.96	7164.7	22.1641	853.586
65	0.39811	6774.02	3258.39	7516.94	25.6882	858.762
66	0.31623	6944.61	3987.45	8007.96	29.8635	864.408
67	0.25119	7136.45	4825.07	8614.54	34.0633	870.67
68	0.19953	7281.51	5835	9331	38.7067	877.716
69	0.15849	7589.5	7081.13	10379.9	43.0154	885.882
70	0.12589	7866.82	8643.16	11687.2	47.6922	895.258
71	0.1	8129.83	10601.6	13359.9	52.5171	906.244