File: data/20200504/Z_p37_3.txt
Index	Frequency (Hz)	Z' (Ω)	-Z'' (Ω)	Z (Ω)	-Phase (°)	Time (s)
1	1000000	3316.22	2360.7	4070.65	35.4458	570.456
2	794330	3687.5	2126.06	4256.49	29.966	572.812
3	630960	4080.24	1962.7	4527.75	25.6887	575.003
4	501190	4438.6	1851.38	4809.24	22.6414	577.269
5	398110	4845.01	1689.11	5131	19.22	581.286
6	316230	5136.4	1550.61	5365.36	16.7983	583.492
7	251190	5296.02	1335.3	5461.77	14.1512	587.309
8	199530	5521.86	1216.16	5654.2	12.4208	589.46
9	158490	5711.09	1097.91	5815.67	10.8819	591.646
10	125890	5865.61	979.041	5946.75	9.47601	593.777
11	100000	5991.44	869.522	6054.21	8.25753	595.888
12	79433	6098.26	770.664	6146.76	7.20254	597.914
13	63096	6186.14	680.388	6223.45	6.27649	600.056
14	50119	6262.79	599.909	6291.46	5.47164	602.277
15	39811	6328.88	529.603	6351	4.78339	604.298
16	31623	6382.41	466.651	6399.45	4.18175	606.324
17	25119	6423	416.366	6436.48	3.70897	608.5
18	19953	6471.83	373.92	6482.62	3.30668	612.362
19	15849	6507.76	336.962	6516.48	2.96404	614.348
20	12589	6540.23	306.213	6547.4	2.68063	616.414
21	10000	6569.26	280.617	6575.25	2.446	618.445
22	7943.3	6600.33	259.25	6605.42	2.24932	622.147
23	6309.6	6629.8	241.72	6634.21	2.08806	624.178
24	5011.9	6657.92	228.007	6661.82	1.96138	626.409
25	3981.1	6683.25	216.139	6686.75	1.85232	628.58
26	3162.3	6711.29	206.968	6714.48	1.76637	630.721
27	2511.9	6735.85	199.107	6738.79	1.69313	633.032
28	1995.3	6757.93	193.627	6760.71	1.64118	635.163
29	1584.9	6783.7	190.191	6786.37	1.60595	637.494
30	1258.9	6809.47	187.677	6812.06	1.57874	639.45
31	1000	6829.76	186.841	6832.32	1.56704	641.561
32	794.33	6852.61	187.552	6855.17	1.56776	643.757
33	630.96	6876.52	189.656	6879.13	1.57983	645.953
34	501.19	6904.91	193.585	6907.62	1.60591	648.174
35	398.11	6929.1	199.738	6931.98	1.65115	650.2
36	316.23	6951.93	207.563	6955.03	1.71017	652.321
37	251.19	6977.89	217.741	6981.29	1.7873	654.503
38	199.53	7003.86	229.797	7007.63	1.87921	656.579
39	158.49	7028.9	245.624	7033.19	2.00138	658.665
40	125.89	7061.06	263.744	7065.98	2.13912	660.811
41	100	7089.22	284.918	7094.94	2.30149	662.927
42	79.433	7127.57	309.763	7134.29	2.4885	665.088
43	63.096	7163.59	338.459	7171.58	2.70505	667.399
44	50.119	7203.96	370.899	7213.51	2.94729	669.655
45	39.811	7257.02	407.598	7268.46	3.2147	679.656
46	31.623	7306.61	447.893	7320.32	3.50783	681.992
47	25.119	7365.77	493.733	7382.3	3.83484	684.358
48	19.953	7425.47	545.995	7445.51	4.20539	686.929
49	15.849	7496.35	600.87	7520.39	4.58274	689.625
50	12.589	7571.08	664.143	7600.16	5.01321	692.461
51	10	7651.88	731.194	7686.74	5.45846	695.502
52	7.9433	7735.49	808.791	7777.66	5.96892	698.613
53	6.3096	7835.15	899.548	7886.62	6.54941	701.649
54	5.0119	7934.38	997.009	7996.78	7.16207	704.815
55	3.9811	8037.27	1113.72	8114.07	7.88921	708.137
56	3.1623	8153.01	1250	8248.27	8.71658	711.538
57	2.5119	8273.71	1411.66	8393.27	9.68259	714.874
58	1.9953	8402.36	1602.69	8553.84	10.799	718.225
59	1.5849	8548.63	1840.04	8744.42	12.1473	721.706
60	1.2589	8691.46	2119.48	8946.16	13.7045	725.312
61	1	8869.1	2457.57	9203.29	15.4877	731.884
62	0.79433	9068.79	2855.09	9507.6	17.4754	735.805
63	0.63096	9267.52	3363.29	9858.94	19.9464	740.041
64	0.50119	9518.94	3943.24	10303.4	22.5019	744.587
65	0.39811	9785.87	4667.5	10842	25.4994	749.558
66	0.31623	10087.4	5608.74	11541.8	29.0748	755.359
67	0.25119	10485.5	6701.38	12444.1	32.583	761.626
68	0.19953	10949.7	7888.67	13495.5	35.7706	768.597
69	0.15849	11549.8	9460	14929.5	39.3195	776.638
70	0.12589	12180.9	11279.7	16601.4	42.8002	785.904
71	0.1	12801	13542.7	18635.2	46.6127	796.87