File: data/20200504/Z_p39_1.txt
Index	Frequency (Hz)	Z' (Ω)	-Z'' (Ω)	Z (Ω)	-Phase (°)	Time (s)
1	1000000	1470.66	644.429	1605.66	23.6625	35.1684
2	794330	1538.66	587.191	1646.89	20.8881	36.7035
3	630960	1624.82	535.296	1710.72	18.2345	38.3035
4	501190	1708.24	486.408	1776.15	15.8938	39.8885
5	398110	1774.36	425.707	1824.71	13.4915	41.3835
6	316230	1843.06	379.303	1881.68	11.6292	42.7436
7	251190	1865.62	311.282	1891.41	9.47265	45.2236
8	199530	1918.98	278.04	1939.02	8.24417	46.5736
9	158490	1959.43	245.561	1974.76	7.1432	48.1337
10	125890	1992.38	215.878	2004.04	6.184	49.5737
11	100000	2017.4	189.245	2026.26	5.359	50.9137
12	79433	2039.49	166.609	2046.28	4.67021	52.3188
13	63096	2055.48	146.947	2060.73	4.08913	53.6438
14	50119	2070.13	130.508	2074.24	3.60733	54.9838
15	39811	2083.3	116.895	2086.58	3.21153	56.3538
16	31623	2094.83	105.642	2097.49	2.88698	57.6988
17	25119	2104.78	97.2229	2107.02	2.6447	59.0789
18	19953	2112.56	90.9456	2114.51	2.46506	60.4589
19	15849	2123	86.1784	2124.75	2.32452	61.9139
20	12589	2131.74	82.8915	2133.35	2.2268	63.339
21	10000	2140.51	80.9181	2142.04	2.16493	64.784
22	7943.3	2150.46	80.1552	2151.96	2.13462	66.109
23	6309.6	2158.61	80.2632	2160.1	2.12944	67.464
24	5011.9	2169.19	81.4014	2170.72	2.14908	68.8241
25	3981.1	2178.08	83.3121	2179.68	2.19051	70.1041
26	3162.3	2188.34	85.8882	2190.03	2.24759	71.4091
27	2511.9	2198.53	89.3045	2200.34	2.32608	72.7791
28	1995.3	2209.76	93.5826	2211.74	2.42501	74.2542
29	1584.9	2221.88	98.8365	2224.07	2.54703	75.6742
30	1258.9	2235.2	105.39	2237.68	2.69952	76.9392
31	1000	2247.48	112.225	2250.28	2.85861	78.2242
32	794.33	2262.63	120.686	2265.85	3.05321	79.6443
33	630.96	2278.12	130.758	2281.87	3.28504	81.1243
34	501.19	2293.84	142.001	2298.23	3.5424	82.5943
35	398.11	2311.49	155.052	2316.68	3.83758	83.8293
36	316.23	2331.08	169.809	2337.26	4.1664	85.1244
37	251.19	2351.6	186.566	2358.99	4.53611	86.5294
38	199.53	2374.96	205.775	2383.85	4.95194	87.8244
39	158.49	2400.58	227.225	2411.31	5.40718	89.2144
40	125.89	2428.5	251.471	2441.49	5.91188	90.6345
41	100	2459.54	278.514	2475.26	6.46055	92.0195
42	79.433	2493.77	308.65	2512.8	7.05554	93.4795
43	63.096	2531.99	342.659	2555.07	7.70713	94.9945
44	50.119	2574.85	382.148	2603.05	8.44197	105.015
45	39.811	2621.57	423.672	2655.58	9.1802	114.085
46	31.623	2674.47	471.568	2715.73	9.99974	115.74
47	25.119	2733.63	524.84	2783.56	10.8682	117.35
48	19.953	2798.85	586.411	2859.63	11.8333	119.285
49	15.849	2870.67	652.982	2944	12.8148	121.22
50	12.589	2952.73	728.111	3041.18	13.8522	123.22
51	10	3043.4	811.433	3149.72	14.9289	125.685
52	7.9433	3141.59	904.355	3269.17	16.0593	128.045
53	6.3096	3250.59	1008.22	3403.35	17.232	130.455
54	5.0119	3371.53	1125.71	3554.49	18.4636	133.06
55	3.9811	3503.08	1257.27	3721.87	19.7433	135.53
56	3.1623	3647.07	1407.01	3909.07	21.0962	138.065
57	2.5119	3807.48	1580.38	4122.44	22.542	140.79
58	1.9953	3978.29	1777.07	4357.15	24.07	143.475
59	1.5849	4169.28	2007.86	4627.56	25.7147	147.861
60	1.2589	4380.54	2272.91	4935.1	27.4232	150.631
61	1	4608.52	2584.94	5283.97	29.2882	155.761
62	0.79433	4872.69	2949.14	5695.66	31.1839	159.106
63	0.63096	5152.35	3376.89	6160.36	33.2411	162.701
64	0.50119	5468.52	3890.07	6710.99	35.4264	166.626
65	0.39811	5824.73	4478.05	7347.14	37.5531	171.051
66	0.31623	6229.08	5201.68	8115.35	39.864	176.026
67	0.25119	6735.88	6029.03	9039.98	41.8305	181.421
68	0.19953	7299.53	7041.38	10142.2	43.9687	187.791
69	0.15849	7936.29	8197.9	11410.1	45.929	195.226
70	0.12589	8600.97	9561.95	12861.1	48.0286	203.827
71	0.1	9491.9	11294.6	14753.4	49.9566	214.037