File: data/20200504/Z_p34_3.txt
Index	Frequency (Hz)	Z' (Ω)	-Z'' (Ω)	Z (Ω)	-Phase (°)	Time (s)
1	1000000	3025.98	2095.32	3680.62	34.7004	720.362
2	794330	3320.31	1905.23	3828.1	29.8476	722.583
3	630960	3675.83	1756.87	4074.11	25.5456	725.034
4	501190	3992.33	1647.34	4318.85	22.4223	727.305
5	398110	4343.34	1511.48	4598.82	19.1878	729.551
6	316230	4590.09	1378.45	4792.61	16.7156	731.902
7	251190	4730.41	1185.63	4876.73	14.0708	735.644
8	199530	4932.69	1077.85	5049.08	12.3261	737.78
9	158490	5095.48	969.772	5186.95	10.7757	739.991
10	125890	5234.01	864.159	5304.87	9.37522	742.272
11	100000	5343.03	765.682	5397.61	8.15523	744.498
12	79433	5436.56	677.077	5478.56	7.09915	746.474
13	63096	5514	597.545	5546.28	6.18494	748.87
14	50119	5580.28	526.978	5605.11	5.39478	750.961
15	39811	5635.74	463.959	5654.81	4.70622	753.017
16	31623	5683.5	408.254	5698.15	4.10858	755.233
17	25119	5724.3	364.304	5735.89	3.64149	757.519
18	19953	5761.67	326.39	5770.91	3.24225	759.565
19	15849	5796.21	293.646	5803.64	2.90022	761.697
20	12589	5824.66	266.105	5830.73	2.61579	764.123
21	10000	5852.12	242.149	5857.12	2.36943	766.159
22	7943.3	5879.95	223.191	5884.18	2.17379	768.14
23	6309.6	5903.28	206.462	5906.89	2.00305	770.301
24	5011.9	5926.08	192.452	5929.2	1.86006	772.307
25	3981.1	5948.91	180.672	5951.65	1.73957	774.513
26	3162.3	5973.59	171.218	5976.04	1.64179	776.624
27	2511.9	5993.93	163.158	5996.15	1.55923	778.615
28	1995.3	6015.71	156.54	6017.75	1.49061	780.676
29	1584.9	6032.33	150.912	6034.22	1.43308	782.667
30	1258.9	6053.6	146.527	6055.38	1.38657	784.703
31	1000	6069.46	142.85	6071.14	1.34826	787.044
32	794.33	6089.34	140.762	6090.97	1.32422	789.375
33	630.96	6107.61	139.593	6109.21	1.3093	791.491
34	501.19	6125.12	139.139	6126.7	1.30131	793.547
35	398.11	6142.35	140.866	6143.96	1.31377	795.593
36	316.23	6160.15	143.8	6161.83	1.33724	797.684
37	251.19	6179.47	148.466	6181.25	1.37631	799.715
38	199.53	6197.88	154.661	6199.81	1.42945	801.936
39	158.49	6213.4	162.657	6215.52	1.49957	804.067
40	125.89	6234.23	172.669	6236.62	1.58651	806.138
41	100	6251.88	184.319	6254.59	1.68872	808.309
42	79.433	6273.85	199.392	6277.02	1.82033	810.425
43	63.096	6297.39	217.404	6301.14	1.97723	812.746
44	50.119	6324.14	237.879	6328.62	2.15413	815.283
45	39.811	6356.42	260.766	6361.76	2.34918	825.104
46	31.623	6384.94	287.312	6391.41	2.57648	827.71
47	25.119	6419.07	317.907	6426.93	2.83528	831.892
48	19.953	6459.06	355.484	6468.84	3.15018	834.348
49	15.849	6506.53	395.454	6518.53	3.47805	836.989
50	12.589	6550.43	439.356	6565.15	3.83724	840.15
51	10	6602.55	490.753	6620.76	4.25085	843.291
52	7.9433	6656.77	547.292	6679.23	4.70005	846.432
53	6.3096	6718.09	614.075	6746.09	5.22267	849.553
54	5.0119	6783.02	689.801	6818.01	5.80674	852.584
55	3.9811	6849.91	779.456	6894.11	6.49181	855.745
56	3.1623	6926.97	886.595	6983.47	7.29374	858.946
57	2.5119	7005.72	1011.84	7078.41	8.21845	862.187
58	1.9953	7085.55	1163.34	7180.42	9.32393	865.693
59	1.5849	7188.53	1347.49	7313.74	10.6169	869.055
60	1.2589	7281.5	1569.71	7448.77	12.1653	873.071
61	1	7415.38	1834.74	7638.99	13.8972	879.643
62	0.79433	7551.88	2163.5	7855.67	15.9862	883.704
63	0.63096	7697.03	2525.66	8100.82	18.1664	887.865
64	0.50119	7843.41	2999.88	8397.52	20.9304	892.626
65	0.39811	8025.08	3595.96	8793.91	24.1367	897.577
66	0.31623	8271.55	4280.14	9313.34	27.3595	903.018
67	0.25119	8518.69	5133.65	9945.97	31.0746	909.249
68	0.19953	8863.86	6240.45	10840.3	35.1468	916.475
69	0.15849	9189.61	7475.02	11845.9	39.1256	924.407
70	0.12589	9633.84	9021.78	13198.6	43.1209	933.758
71	0.1	10255	10843.8	14924.9	46.5986	944.684