File: data/20200504/Z_p39_3.txt
Index	Frequency (Hz)	Z' (Ω)	-Z'' (Ω)	Z (Ω)	-Phase (°)	Time (s)
1	1000000	1471.69	642.084	1605.66	23.5711	529.542
2	794330	1538.91	585.054	1646.37	20.8155	532.227
3	630960	1624.45	534.398	1710.1	18.2097	534.832
4	501190	1707.14	484.361	1774.52	15.8401	537.502
5	398110	1773	424.695	1823.16	13.4705	540.202
6	316230	1841.82	378.775	1880.36	11.621	542.767
7	251190	1864.76	310.394	1890.42	9.45036	547.273
8	199530	1916.8	277.298	1936.75	8.23172	550.113
9	158490	1958.71	244.982	1973.97	7.12917	552.568
10	125890	1990.1	215.265	2001.71	6.17357	555.223
11	100000	2016.55	188.793	2025.37	5.34853	557.848
12	79433	2037.25	166.192	2044.01	4.66369	560.468
13	63096	2054.39	146.641	2059.62	4.0828	562.993
14	50119	2068.27	130.225	2072.37	3.60278	565.648
15	39811	2081.24	116.677	2084.5	3.20873	568.233
16	31623	2091.75	105.511	2094.41	2.88765	571.018
17	25119	2101.9	96.9374	2104.13	2.64055	573.453
18	19953	2111.62	90.7223	2113.56	2.46011	576.118
19	15849	2119.98	85.9623	2121.72	2.32199	578.823
20	12589	2129.63	82.7613	2131.24	2.2255	581.333
21	10000	2137.9	80.7332	2139.42	2.16263	584.093
22	7943.3	2146.71	79.9764	2148.2	2.13359	586.613
23	6309.6	2157.56	80.1615	2159.05	2.12777	589.188
24	5011.9	2166.97	81.2561	2168.49	2.14744	591.793
25	3981.1	2176.2	83.0632	2177.78	2.18586	595.653
26	3162.3	2186.37	85.6829	2188.05	2.24425	598.128
27	2511.9	2197.78	89.3055	2199.59	2.3269	600.634
28	1995.3	2209.22	93.5691	2211.2	2.42525	603.684
29	1584.9	2220.97	98.8095	2223.17	2.54737	606.904
30	1258.9	2233.19	105.03	2235.66	2.69271	609.614
31	1000	2246.66	112.335	2249.47	2.86246	612.174
32	794.33	2260.87	120.789	2264.1	3.05818	614.719
33	630.96	2277.39	130.62	2281.13	3.28261	617.479
34	501.19	2292.38	141.85	2296.76	3.54089	619.819
35	398.11	2309.76	155.05	2314.96	3.8404	622.724
36	316.23	2330.17	169.884	2336.36	4.16984	625.164
37	251.19	2350.42	186.739	2357.83	4.54257	628.384
38	199.53	2374.6	205.789	2383.5	4.95304	631.104
39	158.49	2398.68	227.226	2409.41	5.41147	634.074
40	125.89	2427.44	251.489	2440.43	5.9149	636.614
41	100	2458.84	278.656	2474.58	6.46565	639.139
42	79.433	2492.35	308.629	2511.38	7.05903	641.799
43	63.096	2531.78	342.893	2554.9	7.71294	644.514
44	50.119	2574.08	380.986	2602.12	8.41915	646.894
45	39.811	2621.05	423.923	2655.11	9.18735	658.505
46	31.623	2673.54	471.946	2714.88	10.011	662.145
47	25.119	2732.99	525.196	2782.99	10.8779	664.94
48	19.953	2799.51	586.754	2860.34	11.8374	669.145
49	15.849	2871.61	653.693	2945.08	12.8243	673.355
50	12.589	2952.31	728.664	3040.9	13.8642	677.79
51	10	3042.65	811.471	3149	14.9331	681.34
52	7.9433	3142.13	904.252	3269.66	16.0549	685.165
53	6.3096	3251.11	1008.05	3403.81	17.2267	688.495
54	5.0119	3370.76	1125.37	3553.66	18.4623	691.91
55	3.9811	3504.82	1257.42	3723.56	19.7364	695.88
56	3.1623	3649.16	1408.85	3911.67	21.1104	700.57
57	2.5119	3807.84	1580.58	4122.85	22.5426	704.055
58	1.9953	3981.22	1778.3	4360.33	24.069	707.665
59	1.5849	4172.9	2006.97	4630.45	25.6854	711.276
60	1.2589	4382.2	2272.54	4936.4	27.4106	715.151
61	1	4612.19	2585.65	5287.52	29.2755	722.061
62	0.79433	4872.42	2954.76	5698.34	31.2336	726.156
63	0.63096	5159.14	3372.13	6163.44	33.1695	730.896
64	0.50119	5469.44	3882.71	6707.47	35.3706	735.521
65	0.39811	5831.59	4476.78	7351.8	37.5127	740.831
66	0.31623	6256.27	5184.79	8125.45	39.6497	747.386
67	0.25119	6710.4	6020.65	9015.41	41.8988	753.581
68	0.19953	7239.95	7053.39	10107.8	44.2522	761.031
69	0.15849	7890.07	8172.25	11359.5	46.0064	769.407
70	0.12589	8606.64	9550.66	12856.5	47.9762	778.762
71	0.1	9436.22	11272.7	14700.9	50.0678	789.717