File: data/20200504/Z_p36_2.txt
Index	Frequency (Hz)	Z' (Ω)	-Z'' (Ω)	Z (Ω)	-Phase (°)	Time (s)
1	1000000	2922.87	1832.22	3449.66	32.0818	372.312
2	794330	3163.56	1636.12	3561.6	27.347	373.718
3	630960	3442.14	1495.18	3752.85	23.4789	375.173
4	501190	3710.38	1376.51	3957.49	20.3542	376.708
5	398110	3983.86	1244.13	4173.61	17.3432	379.113
6	316230	4190.92	1125.28	4339.36	15.0297	380.438
7	251190	4291.16	948.22	4394.68	12.4604	382.763
8	199530	4451.72	853.662	4532.83	10.8553	384.088
9	158490	4579.91	761.121	4642.73	9.43557	385.483
10	125890	4681.58	670.148	4729.3	8.1463	386.813
11	100000	4765.8	589.334	4802.1	7.04936	388.188
12	79433	4834.16	516.307	4861.65	6.0963	389.488
13	63096	4890.34	451.75	4911.16	5.27778	390.893
14	50119	4940.39	394.626	4956.12	4.56695	392.403
15	39811	4978.12	344.619	4990.03	3.96008	393.678
16	31623	5010.88	301.314	5019.93	3.44116	394.958
17	25119	5035.43	266.903	5042.5	3.03413	396.258
18	19953	5062.3	238.446	5067.91	2.69677	397.563
19	15849	5085.77	214.207	5090.28	2.41181	398.848
20	12589	5104.32	193.535	5107.99	2.17138	400.168
21	10000	5126.6	177.296	5129.67	1.9807	401.478
22	7943.3	5146.2	163.03	5148.78	1.8145	402.793
23	6309.6	5163.1	151.983	5165.34	1.68609	404.138
24	5011.9	5181.64	142.662	5183.6	1.57709	405.438
25	3981.1	5196.74	134.516	5198.48	1.48275	406.818
26	3162.3	5212.29	128.07	5213.86	1.40752	408.078
27	2511.9	5227.04	122.838	5228.48	1.34624	409.403
28	1995.3	5242.68	118.497	5244.02	1.2948	410.738
29	1584.9	5258.1	114.947	5259.36	1.25234	412.008
30	1258.9	5273.29	111.701	5274.47	1.21348	413.253
31	1000	5287	110.448	5288.16	1.19676	414.563
32	794.33	5303.27	109.444	5304.4	1.18225	416.023
33	630.96	5313.12	109.297	5314.25	1.17848	417.343
34	501.19	5329.93	109.902	5331.07	1.18126	418.678
35	398.11	5344.95	111.728	5346.12	1.1975	419.973
36	316.23	5355.47	114.753	5356.7	1.2275	421.258
37	251.19	5372.02	119.219	5373.35	1.27133	422.613
38	199.53	5384.01	124.497	5385.45	1.32464	423.928
39	158.49	5398.92	132.108	5400.54	1.40171	425.268
40	125.89	5414.95	140.019	5416.76	1.48122	426.703
41	100	5428.81	150.803	5430.91	1.59116	428.049
42	79.433	5446.58	162.987	5449.02	1.71404	429.589
43	63.096	5468.95	177.002	5471.82	1.85373	431.064
44	50.119	5490.6	193.252	5494	2.0158	432.424
45	39.811	5514.3	213.374	5518.42	2.21594	441.514
46	31.623	5539.02	234.018	5543.96	2.41925	443.109
47	25.119	5567.07	256.851	5572.99	2.64162	444.769
48	19.953	5597.88	288.097	5605.29	2.94615	446.674
49	15.849	5632.44	319.548	5641.5	3.2471	448.619
50	12.589	5668	354.717	5679.09	3.58104	450.554
51	10	5707	396.617	5720.77	3.97547	452.899
52	7.9433	5751.33	446.032	5768.6	4.43457	455.154
53	6.3096	5794.64	502.085	5816.36	4.9521	457.459
54	5.0119	5842.72	570.634	5870.52	5.57815	459.904
55	3.9811	5895.71	648.679	5931.29	6.27874	462.309
56	3.1623	5951.66	746.216	5998.25	7.14643	464.864
57	2.5119	6011.26	860.01	6072.47	8.14186	467.444
58	1.9953	6079.36	997.821	6160.7	9.321	469.984
59	1.5849	6150.51	1163.37	6259.57	10.711	472.814
60	1.2589	6233.54	1363.08	6380.83	12.3346	475.784
61	1	6319.47	1612.61	6521.98	14.3153	481.084
62	0.79433	6432.21	1901.19	6707.3	16.4663	484.27
63	0.63096	6524.29	2270.73	6908.16	19.19	487.91
64	0.50119	6655.06	2716.84	7188.25	22.2071	491.67
65	0.39811	6776.87	3289.89	7533.22	25.8946	495.91
66	0.31623	6947.74	3962.02	7998.04	29.6944	500.76
67	0.25119	7084.5	4826.2	8572.18	34.264	506.24
68	0.19953	7278.19	5840.11	9331.61	38.744	512.475
69	0.15849	7528.06	7147.05	10380.4	43.5128	519.73
70	0.12589	7900.32	8724.79	11770.2	47.8391	528.3
71	0.1	8159.56	10559.5	13344.7	52.306	538.441