File: data/20200504/Z_p34_2.txt
Index	Frequency (Hz)	Z' (Ω)	-Z'' (Ω)	Z (Ω)	-Phase (°)	Time (s)
1	1000000	3015.27	2086.22	3666.63	34.6788	453.051
2	794330	3307.18	1895.22	3811.73	29.8154	454.386
3	630960	3651.25	1745.75	4047.13	25.5536	455.756
4	501190	3975.79	1634.62	4298.71	22.3497	457.221
5	398110	4319.4	1493.41	4570.28	19.0725	458.771
6	316230	4571.84	1365.78	4771.49	16.6328	460.246
7	251190	4707.87	1174.16	4852.08	14.0041	462.561
8	199530	4907.28	1068.68	5022.3	12.2858	463.971
9	158490	5068.82	959.688	5158.87	10.721	465.396
10	125890	5201.41	853.372	5270.95	9.31726	466.796
11	100000	5311.07	757.881	5364.87	8.12119	468.286
12	79433	5404.72	670.471	5446.15	7.07158	469.681
13	63096	5481.46	591.753	5513.3	6.16153	471.041
14	50119	5545.16	521.225	5569.61	5.36981	472.506
15	39811	5604.19	459.613	5623.01	4.68847	473.981
16	31623	5648.71	404.261	5663.15	4.09351	475.296
17	25119	5688.5	361.267	5699.96	3.63387	476.571
18	19953	5726.8	323.617	5735.94	3.2343	477.851
19	15849	5756.11	290.866	5763.46	2.89279	479.196
20	12589	5786.86	263.987	5792.88	2.61193	480.571
21	10000	5813.65	240.787	5818.63	2.37169	481.972
22	7943.3	5841.36	220.974	5845.53	2.16642	483.362
23	6309.6	5866.09	205.232	5869.68	2.00375	484.747
24	5011.9	5891.16	190.994	5894.26	1.85691	486.197
25	3981.1	5912.71	179.423	5915.43	1.73813	487.567
26	3162.3	5933.29	170.512	5935.74	1.64612	488.827
27	2511.9	5952.99	162.144	5955.2	1.56021	490.087
28	1995.3	5973.18	155.104	5975.19	1.48745	491.517
29	1584.9	5991.27	150.001	5993.15	1.43419	492.697
30	1258.9	6010.88	144.662	6012.62	1.37865	493.957
31	1000	6032.25	142.752	6033.94	1.35564	495.252
32	794.33	6049.81	140.321	6051.44	1.3287	496.787
33	630.96	6066.89	138.963	6068.48	1.31213	498.152
34	501.19	6081.61	139.262	6083.2	1.31178	500.237
35	398.11	6103.13	140.876	6104.76	1.3223	501.407
36	316.23	6121.01	143.376	6122.69	1.34183	502.727
37	251.19	6136.09	147.99	6137.87	1.38159	504.212
38	199.53	6155.49	154.619	6157.43	1.43891	505.532
39	158.49	6172.38	162.506	6174.52	1.50813	506.837
40	125.89	6191.86	172.164	6194.25	1.5927	508.217
41	100	6209.3	185.022	6212.06	1.70676	509.737
42	79.433	6234.16	200.013	6237.37	1.83761	511.062
43	63.096	6258.84	217.783	6262.63	1.99286	512.487
44	50.119	6286.02	237.809	6290.51	2.16655	513.927
45	39.811	6314.54	260.905	6319.93	2.36601	523.252
46	31.623	6346.46	287.322	6352.96	2.59217	525.012
47	25.119	6383.77	318.778	6391.73	2.85873	526.722
48	19.953	6420.81	355.81	6430.66	3.17181	528.737
49	15.849	6463.67	394.222	6475.68	3.49017	530.902
50	12.589	6510.71	439.571	6525.54	3.86246	532.967
51	10	6559.88	490.475	6578.19	4.27599	535.188
52	7.9433	6615.96	546.78	6638.52	4.7245	537.513
53	6.3096	6674.14	614.648	6702.39	5.26175	540.038
54	5.0119	6739.8	690.705	6775.1	5.85134	542.518
55	3.9811	6811.21	780.932	6855.83	6.54063	544.968
56	3.1623	6884.2	888.291	6941.27	7.35244	547.478
57	2.5119	6964.14	1014.02	7037.58	8.28438	550.248
58	1.9953	7047.66	1168.65	7143.9	9.41519	552.888
59	1.5849	7148.09	1348.37	7274.15	10.6824	555.533
60	1.2589	7250.35	1575.59	7419.58	12.2605	560.098
61	1	7374.08	1843.5	7601.02	14.0361	565.258
62	0.79433	7511	2159.79	7815.36	16.0426	568.553
63	0.63096	7657.86	2556.61	8073.36	18.4618	572.268
64	0.50119	7825.35	3037.59	8394.23	21.2148	576.183
65	0.39811	7988.83	3619.92	8770.71	24.3764	580.573
66	0.31623	8237.27	4349.35	9315.01	27.8344	585.418
67	0.25119	8472.15	5175.76	9928.03	31.4214	590.789
68	0.19953	8798.25	6184.42	10754.4	35.1039	597.019
69	0.15849	9139.97	7476.43	11808.3	39.2829	604.189
70	0.12589	9657.56	9066.78	13246.7	43.1928	612.654
71	0.1	10147.7	10780.3	14805.1	46.7314	622.939