File: data/20200504/Z_p35_3.txt
Index	Frequency (Hz)	Z' (Ω)	-Z'' (Ω)	Z (Ω)	-Phase (°)	Time (s)
1	1000000	2526.55	1595.87	2988.35	32.2781	549.914
2	794330	2741.92	1457.23	3105.1	27.989	552.164
3	630960	2997.64	1347.07	3286.4	24.198	554.239
4	501190	3239.67	1252.51	3473.37	21.1374	556.349
5	398110	3477.55	1141.28	3660.04	18.1691	558.619
6	316230	3670.11	1039.84	3814.58	15.8189	560.744
7	251190	3768.91	885.325	3871.5	13.2192	562.824
8	199530	3921.29	801.146	4002.29	11.547	565.044
9	158490	4042.87	715.645	4105.72	10.0382	567.199
10	125890	4141.72	633.386	4189.87	8.69479	569.209
11	100000	4220.59	556.82	4257.16	7.5156	571.404
12	79433	4285.84	488.869	4313.63	6.50739	573.504
13	63096	4341.87	428.081	4362.92	5.63081	575.614
14	50119	4385.9	375.199	4401.92	4.88956	577.739
15	39811	4425.18	328.279	4437.34	4.24268	580.029
16	31623	4455.5	287.868	4464.79	3.69671	582.079
17	25119	4480.86	255.682	4488.15	3.2658	584.149
18	19953	4506.34	228.732	4512.14	2.90572	586.384
19	15849	4528.64	205.961	4533.32	2.60399	588.504
20	12589	4548.71	186.942	4552.55	2.3534	590.474
21	10000	4567.96	171.499	4571.18	2.1501	592.484
22	7943.3	4586.29	158.952	4589.04	1.98497	594.554
23	6309.6	4605.27	148.809	4607.68	1.85074	596.694
24	5011.9	4622.19	140.393	4624.32	1.73975	598.744
25	3981.1	4638.03	133.889	4639.96	1.65354	600.85
26	3162.3	4651.48	128.567	4653.26	1.58326	602.905
27	2511.9	4668.96	124.461	4670.62	1.52697	604.915
28	1995.3	4685.37	121.517	4686.94	1.48565	606.925
29	1584.9	4700.72	119.281	4702.23	1.45357	608.915
30	1258.9	4716.82	118.023	4718.29	1.43334	611.035
31	1000	4729.1	117.331	4730.55	1.42124	613.12
32	794.33	4746.78	117.745	4748.24	1.42094	615.195
33	630.96	4762.88	119.102	4764.37	1.43246	617.275
34	501.19	4778.62	121.514	4780.17	1.45665	619.505
35	398.11	4793.4	124.331	4795.02	1.4858	621.465
36	316.23	4809.91	129.236	4811.64	1.53909	623.595
37	251.19	4825.36	134.703	4827.24	1.59903	625.635
38	199.53	4840.87	142.296	4842.96	1.68371	628.065
39	158.49	4859.27	150.729	4861.61	1.77668	630.12
40	125.89	4874.57	160.854	4877.23	1.88999	632.255
41	100	4895.2	172.553	4898.24	2.0188	634.345
42	79.433	4917.04	186.687	4920.58	2.17433	636.515
43	63.096	4940.84	203.145	4945.01	2.35442	638.68
44	50.119	4969.73	221.733	4974.67	2.55466	640.95
45	39.811	4993.69	240.627	4999.49	2.75873	650.695
46	31.623	5027.18	263.502	5034.09	3.00044	653.055
47	25.119	5060.54	289.032	5068.79	3.26889	655.311
48	19.953	5096.25	319.134	5106.23	3.58326	657.871
49	15.849	5137.69	350.653	5149.64	3.90444	660.506
50	12.589	5182.12	386.808	5196.53	4.2688	663.186
51	10	5225.23	427.591	5242.69	4.67821	666.181
52	7.9433	5274.32	473.963	5295.57	5.13495	669.186
53	6.3096	5330.3	527.09	5356.29	5.64738	672.291
54	5.0119	5383.02	588.676	5415.11	6.24095	675.546
55	3.9811	5447.03	661.861	5487.09	6.92797	678.676
56	3.1623	5506.01	746.676	5556.41	7.72283	681.851
57	2.5119	5573.72	848.671	5637.96	8.65753	685.091
58	1.9953	5646.82	975.795	5730.51	9.80413	688.616
59	1.5849	5725.48	1124.25	5834.82	11.1092	692.081
60	1.2589	5815.3	1310.39	5961.11	12.6986	695.681
61	1	5901.1	1523.93	6094.7	14.48	699.666
62	0.79433	6011.27	1793.5	6273.11	16.6128	703.551
63	0.63096	6134.78	2105.46	6486.02	18.9422	707.782
64	0.50119	6253.64	2494.67	6732.86	21.7478	712.582
65	0.39811	6383.8	2993.71	7050.9	25.1244	717.472
66	0.31623	6585.67	3607.07	7508.79	28.7102	723.032
67	0.25119	6796.94	4329.88	8058.92	32.4985	729.317
68	0.19953	6977.13	5252.36	8733.13	36.9723	736.322
69	0.15849	7247.38	6304.48	9605.78	41.0199	744.242
70	0.12589	7565.95	7650	10759.5	45.3165	753.452
71	0.1	8018.44	9327.64	12300.4	49.3162	764.363