File: data/20200504/Z_p35_2.txt
Index	Frequency (Hz)	Z' (Ω)	-Z'' (Ω)	Z (Ω)	-Phase (°)	Time (s)
1	1000000	2519.33	1596.35	2982.51	32.36	272.12
2	794330	2735.04	1448.68	3095.02	27.9089	273.41
3	630960	2986.59	1343.9	3275.02	24.2267	274.79
4	501190	3224.11	1258.27	3460.94	21.3191	276.265
5	398110	3469.04	1137.43	3650.75	18.1533	277.7
6	316230	3660.8	1036.85	3804.8	15.8138	279.055
7	251190	3756.1	881.295	3858.1	13.2045	280.36
8	199530	3908.93	796.416	3989.24	11.516	281.735
9	158490	4032.71	711.58	4095.01	10.007	283.135
10	125890	4129.33	630.062	4177.13	8.67539	284.38
11	100000	4208.51	554.206	4244.84	7.50194	285.765
12	79433	4273.33	486.335	4300.92	6.49272	287.03
13	63096	4328.44	425.961	4349.35	5.62038	288.385
14	50119	4371.88	372.834	4387.75	4.87439	289.77
15	39811	4408.21	326.538	4420.29	4.23644	291.11
16	31623	4439.34	286.031	4448.54	3.68653	293.255
17	25119	4468.6	254.299	4475.83	3.25708	294.52
18	19953	4491	227.767	4496.77	2.90334	295.8
19	15849	4513.46	204.91	4518.11	2.59942	297.1
20	12589	4534.19	186.08	4538.01	2.35006	298.36
21	10000	4552.93	170.8	4556.14	2.1484	299.665
22	7943.3	4568.78	158.106	4571.52	1.98197	300.98
23	6309.6	4587.18	147.914	4589.56	1.84687	302.33
24	5011.9	4602.87	139.846	4605	1.74024	303.695
25	3981.1	4622.03	133.071	4623.94	1.64913	305.03
26	3162.3	4636.32	127.649	4638.08	1.57709	306.395
27	2511.9	4652.54	123.81	4654.19	1.52435	307.7
28	1995.3	4666.81	120.782	4668.37	1.48255	309.015
29	1584.9	4682.09	118.568	4683.59	1.45063	310.24
30	1258.9	4697.88	116.941	4699.33	1.42593	311.44
31	1000	4713.58	116.677	4715.02	1.41798	312.74
32	794.33	4730.62	117.202	4732.07	1.41922	314.18
33	630.96	4745.55	118.538	4747.03	1.43088	315.525
34	501.19	4760	120.318	4761.52	1.44795	316.815
35	398.11	4774.3	123.691	4775.9	1.48407	318.085
36	316.23	4792.02	128.246	4793.73	1.533	319.265
37	251.19	4807.62	134.036	4809.49	1.59698	320.551
38	199.53	4821.81	141.345	4823.88	1.67907	321.866
39	158.49	4841.44	150.418	4843.78	1.77954	323.191
40	125.89	4858.61	160.417	4861.26	1.89105	324.571
41	100	4878.18	171.649	4881.19	2.01524	325.891
42	79.433	4897.65	186.058	4901.18	2.17558	327.241
43	63.096	4924.56	201.338	4928.67	2.34121	328.666
44	50.119	4949.34	219.93	4954.22	2.54433	330.116
45	39.811	4977.43	238.596	4983.14	2.74441	340.156
46	31.623	5007.79	260.846	5014.58	2.98173	341.681
47	25.119	5040.37	286.6	5048.52	3.25439	343.236
48	19.953	5077.18	317.168	5087.07	3.57458	345.061
49	15.849	5115.93	349.369	5127.85	3.90669	347.016
50	12.589	5156.61	384.692	5170.94	4.26646	349.071
51	10	5205.7	426.143	5223.11	4.67985	351.376
52	7.9433	5254.11	469.789	5275.07	5.10944	353.626
53	6.3096	5305.07	523.666	5330.85	5.63743	355.911
54	5.0119	5361.53	584.621	5393.31	6.22294	358.286
55	3.9811	5417.5	655.701	5457.03	6.90117	360.701
56	3.1623	5482.31	742.255	5532.33	7.71044	363.171
57	2.5119	5554.05	846.162	5618.14	8.66243	365.741
58	1.9953	5621.95	969.197	5704.88	9.78137	368.411
59	1.5849	5697.05	1116.07	5805.34	11.0841	371.196
60	1.2589	5783.67	1298.43	5927.63	12.6531	374.002
61	1	5879.96	1519.85	6073.21	14.4926	378.997
62	0.79433	5989.08	1789.46	6250.7	16.6355	382.097
63	0.63096	6089.85	2095.42	6440.27	18.9875	385.557
64	0.50119	6222.34	2510.96	6709.87	21.976	389.327
65	0.39811	6353.77	3008.52	7030.05	25.3377	393.512
66	0.31623	6552.92	3611.47	7482.21	28.8602	398.317
67	0.25119	6706.32	4345.57	7991.16	32.9425	403.712
68	0.19953	6938.95	5212.31	8678.55	36.9127	409.982
69	0.15849	7207.47	6321.57	9586.96	41.2536	417.292
70	0.12589	7611.08	7674.33	10808.5	45.2371	425.832
71	0.1	7941.26	9178.28	12136.9	49.1329	435.973