File: data/20200504/Z_p35_1.txt
Index	Frequency (Hz)	Z' (Ω)	-Z'' (Ω)	Z (Ω)	-Phase (°)	Time (s)
1	1000000	2521.67	1589.92	2981.05	32.2315	67.234
2	794330	2730.22	1445.87	3089.43	27.9048	68.649
3	630960	2986.18	1343.88	3274.64	24.2293	70.0091
4	501190	3230.35	1242.66	3461.12	21.0408	71.4891
5	398110	3464.98	1132.33	3645.31	18.097	72.8691
6	316230	3656.28	1032.7	3799.33	15.7721	74.2141
7	251190	3753.98	879.278	3855.58	13.1825	75.4742
8	199530	3901.57	795.443	3981.83	11.5234	76.8642
9	158490	4024.21	710.375	4086.42	10.011	78.2392
10	125890	4121.25	627.873	4168.81	8.6624	79.5142
11	100000	4200.47	552.218	4236.62	7.48947	80.8743
12	79433	4264.97	484.602	4292.41	6.48236	82.1693
13	63096	4317.6	424.328	4338.4	5.61292	83.5193
14	50119	4363.3	371.73	4379.11	4.86953	84.9743
15	39811	4400.72	325.476	4412.74	4.22989	86.3594
16	31623	4431.28	285.195	4440.45	3.68245	87.6444
17	25119	4456.91	253.841	4464.14	3.25973	88.9094
18	19953	4483.85	226.599	4489.57	2.89308	90.1944
19	15849	4503.75	204.091	4508.37	2.59463	91.4745
20	12589	4524.73	185.549	4528.54	2.34826	92.7345
21	10000	4542.31	170.042	4545.49	2.14387	94.0495
22	7943.3	4561.27	157.739	4564	1.98062	95.3295
23	6309.6	4579.61	147.443	4581.99	1.84403	96.6596
24	5011.9	4593.46	139.74	4595.59	1.74249	97.9246
25	3981.1	4609.36	132.656	4611.27	1.6485	99.2096
26	3162.3	4626.48	127.502	4628.23	1.57863	100.49
27	2511.9	4641.18	123.673	4642.83	1.5264	101.78
28	1995.3	4657.15	120.53	4658.71	1.48252	103.13
29	1584.9	4675.13	118.592	4676.64	1.45308	104.35
30	1258.9	4689.71	117.15	4691.18	1.43096	105.615
31	1000	4702.93	116.454	4704.38	1.41847	106.895
32	794.33	4718.49	117.024	4719.95	1.42071	108.265
33	630.96	4734.2	118.02	4735.67	1.42804	109.655
34	501.19	4749.36	120.372	4750.88	1.45185	110.935
35	398.11	4765.95	123.598	4767.56	1.48555	112.185
36	316.23	4781.69	128.045	4783.41	1.53391	113.46
37	251.19	4797.27	133.74	4799.13	1.5969	114.785
38	199.53	4813.68	140.663	4815.73	1.67379	116.055
39	158.49	4828.7	149.581	4831.02	1.77431	117.36
40	125.89	4848.8	159.486	4851.42	1.88388	118.715
41	100	4868.5	171.16	4871.5	2.0135	120.045
42	79.433	4886.47	185.473	4889.99	2.1737	121.415
43	63.096	4912.8	200.176	4916.87	2.33327	122.87
44	50.119	4937.28	219.141	4942.14	2.5414	124.315
45	39.811	4966.67	238.865	4972.41	2.75344	133.475
46	31.623	4998.5	261.855	5005.36	2.99879	135.09
47	25.119	5030.99	286.467	5039.14	3.25893	136.695
48	19.953	5066.19	315.73	5076.02	3.56612	138.555
49	15.849	5103.41	347.319	5115.22	3.89334	140.455
50	12.589	5146.41	382.969	5160.64	4.25581	142.44
51	10	5192.75	423.834	5210.02	4.66616	144.705
52	7.9433	5241.9	470.135	5262.94	5.12502	147.01
53	6.3096	5295.34	521.892	5320.99	5.62872	149.306
54	5.0119	5350.2	582.328	5381.8	6.21175	151.686
55	3.9811	5406.75	656.131	5446.42	6.91924	154.071
56	3.1623	5469.43	741.214	5519.43	7.71767	156.561
57	2.5119	5540.11	843.681	5603.98	8.65882	159.146
58	1.9953	5607.99	967.597	5690.85	9.78937	161.801
59	1.5849	5690.17	1114.24	5798.24	11.0794	164.541
60	1.2589	5768.28	1293.19	5911.47	12.6362	167.411
61	1	5863.32	1520.47	6057.26	14.5376	170.706
62	0.79433	5978.78	1774.59	6236.59	16.5317	173.996
63	0.63096	6085.04	2105.62	6439.05	19.0873	177.496
64	0.50119	6204.61	2483.8	6683.3	21.817	181.236
65	0.39811	6361.36	2985.8	7027.23	25.1437	185.461
66	0.31623	6512.51	3573.63	7428.57	28.7551	190.201
67	0.25119	6738.83	4345.99	8018.69	32.8187	195.686
68	0.19953	6966.39	5243.68	8719.34	36.9692	201.907
69	0.15849	7280.8	6317.58	9639.6	40.9483	209.132
70	0.12589	7560.06	7553.95	10687.2	44.9769	217.632
71	0.1	7919.45	9297.18	12212.9	49.5752	227.732