File: data/20200504/Z_p37_1.txt
Index	Frequency (Hz)	Z' (Ω)	-Z'' (Ω)	Z (Ω)	-Phase (°)	Time (s)
1	1000000	3356.86	2368.66	4108.41	35.2074	26.1833
2	794330	3696.69	2127.48	4265.17	29.9208	27.5833
3	630960	4086.17	1979.59	4540.44	25.8484	28.9933
4	501190	4441.65	1844.82	4809.53	22.5553	30.4483
5	398110	4856.18	1698.21	5144.55	19.2748	31.9284
6	316230	5148.48	1560.4	5379.75	16.861	33.3184
7	251190	5304.29	1340.29	5471	14.1807	34.7084
8	199530	5534.98	1223.49	5668.59	12.4646	36.1634
9	158490	5720.52	1103.53	5825.99	10.9186	37.4435
10	125890	5874.28	982.899	5955.94	9.49888	38.7835
11	100000	6004.4	873.202	6067.56	8.27435	40.2185
12	79433	6111.8	772.976	6160.49	7.20808	41.5235
13	63096	6200.43	682.255	6237.85	6.27919	42.8986
14	50119	6276.55	602.568	6305.41	5.48376	44.1686
15	39811	6341.8	531.427	6364.03	4.79005	45.5786
16	31623	6395.18	468.09	6412.29	4.18625	46.8936
17	25119	6440.42	417.828	6453.96	3.71191	48.2337
18	19953	6481.99	374.89	6492.82	3.31005	49.5037
19	15849	6517.23	337.839	6525.98	2.96743	50.8087
20	12589	6554.16	307.425	6561.37	2.68551	52.1387
21	10000	6584.98	281.651	6591	2.44915	53.4538
22	7943.3	6616.57	260.069	6621.68	2.2509	54.7438
23	6309.6	6643.94	242.533	6648.36	2.09062	56.0888
24	5011.9	6671.91	228.159	6675.81	1.95858	57.3838
25	3981.1	6695.71	216.235	6699.2	1.8497	58.6739
26	3162.3	6722.2	207.252	6725.39	1.76593	59.9489
27	2511.9	6749.54	199.995	6752.51	1.69723	61.2439
28	1995.3	6774.33	194.135	6777.11	1.6415	62.5289
29	1584.9	6797.65	190.414	6800.32	1.60453	63.7589
30	1258.9	6821.91	187.435	6824.48	1.57383	65.064
31	1000	6846.7	186.741	6849.25	1.56233	66.384
32	794.33	6868.22	187.675	6870.78	1.56522	67.744
33	630.96	6892.64	189.871	6895.25	1.57792	69.009
34	501.19	6915.45	193.533	6918.16	1.60303	70.4141
35	398.11	6938.93	198.858	6941.78	1.64155	71.6991
36	316.23	6965.62	206.897	6968.69	1.70133	72.9941
37	251.19	6989.12	217.475	6992.5	1.78225	74.3641
38	199.53	7018.51	229.258	7022.26	1.87089	75.6892
39	158.49	7042.25	244.311	7046.49	1.98691	77.0242
40	125.89	7074.47	262.459	7079.33	2.12467	78.4192
41	100	7102.45	284.031	7108.12	2.29007	79.7142
42	79.433	7139.15	308.231	7145.8	2.47219	81.1543
43	63.096	7177.39	337.443	7185.31	2.69177	82.6543
44	50.119	7219.27	369.575	7228.72	2.93058	84.1093
45	39.811	7265.39	406.022	7276.73	3.19862	93.1845
46	31.623	7319.01	446.577	7332.62	3.49163	94.8295
47	25.119	7375.5	491.553	7391.86	3.81294	96.3845
48	19.953	7443.08	542.93	7462.85	4.17201	98.2646
49	15.849	7507.38	598.168	7531.17	4.55555	100.165
50	12.589	7583.47	659.718	7612.11	4.97188	102.22
51	10	7662.73	728.982	7697.32	5.43439	104.47
52	7.9433	7750.88	803.588	7792.43	5.9191	106.745
53	6.3096	7842.87	891.311	7893.35	6.48362	109.02
54	5.0119	7944.21	993.74	8006.12	7.13008	111.43
55	3.9811	8050.48	1105.79	8126.07	7.82103	113.85
56	3.1623	8158.75	1245.46	8253.27	8.67937	116.35
57	2.5119	8284.63	1409.92	8403.75	9.65836	118.95
58	1.9953	8409.49	1600.07	8560.36	10.7729	121.52
59	1.5849	8549.15	1830.1	8742.84	12.0829	124.225
60	1.2589	8701.39	2112.73	8954.21	13.6475	127.03
61	1	8871.39	2451.79	9203.96	15.4492	130.225
62	0.79433	9078.71	2859.22	9518.3	17.4811	133.41
63	0.63096	9266.59	3340.64	9850.36	19.8244	136.95
64	0.50119	9510.01	3962.33	10302.4	22.619	140.805
65	0.39811	9760.67	4685.94	10827.2	25.6449	145.15
66	0.31623	10096.8	5607.27	11549.3	29.0457	150.016
67	0.25119	10484.8	6603.9	12391.2	32.2049	155.491
68	0.19953	10973.3	7882.39	13510.9	35.6907	161.801
69	0.15849	11477.2	9407.23	14839.9	39.3396	169.071
70	0.12589	12046.1	11375.5	16568.4	43.3599	177.591
71	0.1	12952.2	13563.8	18754.6	46.3213	187.796