File: data/20200504/Z_p38_3.txt
Index	Frequency (Hz)	Z' (Ω)	-Z'' (Ω)	Z (Ω)	-Phase (°)	Time (s)
1	1000000	3076.42	2050.47	3697.13	33.6839	663.945
2	794330	3352.18	1838.59	3823.29	28.7438	666.036
3	630960	3676.3	1692.13	4047.04	24.7157	668.212
4	501190	3988.53	1567.41	4285.46	21.4537	670.463
5	398110	4316.52	1442.27	4551.1	18.476	672.734
6	316230	4558.88	1316.82	4745.25	16.1112	674.915
7	251190	4685.41	1122.45	4817.98	13.4721	678.767
8	199530	4880.43	1019.61	4985.8	11.8004	680.893
9	158490	5033.9	914.723	5116.33	10.299	683.099
10	125890	5160.25	814.185	5224.09	8.96622	685.215
11	100000	5262.74	719.532	5311.7	7.78531	687.366
12	79433	5351.72	634.733	5389.23	6.76388	689.422
13	63096	5424.09	559.148	5452.84	5.8856	691.593
14	50119	5484.43	491.473	5506.41	5.12073	693.859
15	39811	5538.83	432.085	5555.65	4.46062	695.955
16	31623	5579.4	379.446	5592.29	3.8906	698.071
17	25119	5615.14	337.463	5625.27	3.43927	700.162
18	19953	5646.8	301.783	5654.86	3.05916	702.278
19	15849	5679.39	271.357	5685.87	2.73547	704.419
20	12589	5705.48	245.37	5710.76	2.46255	706.52
21	10000	5732.56	223.151	5736.91	2.22922	708.667
22	7943.3	5756.44	205.709	5760.12	2.04662	710.763
23	6309.6	5778.62	190.559	5781.76	1.88873	712.864
24	5011.9	5798.23	177.054	5800.93	1.74903	715.015
25	3981.1	5817.54	166.163	5819.92	1.63606	717.086
26	3162.3	5839.15	156.918	5841.26	1.53937	719.222
27	2511.9	5857.9	149.557	5859.81	1.46249	721.423
28	1995.3	5877	142.661	5878.73	1.39055	723.539
29	1584.9	5897	137.352	5898.6	1.33428	725.625
30	1258.9	5912.59	132.078	5914.06	1.27969	727.756
31	1000	5928.78	128.76	5930.18	1.24414	729.872
32	794.33	5948.28	126.06	5949.62	1.21407	731.963
33	630.96	5963.91	124.065	5965.2	1.19173	734.004
34	501.19	5979.32	122.93	5980.58	1.17779	736.175
35	398.11	5996.52	122.637	5997.78	1.17161	738.296
36	316.23	6010.26	123.791	6011.53	1.17993	740.427
37	251.19	6026.27	126.802	6027.61	1.20542	742.588
38	199.53	6044.27	129.739	6045.66	1.22966	744.664
39	158.49	6059.62	134.68	6061.12	1.27324	746.745
40	125.89	6073.89	140.925	6075.52	1.32913	748.941
41	100	6088.68	148.08	6090.48	1.39319	751.142
42	79.433	6107.7	157.342	6109.73	1.47568	753.443
43	63.096	6125.52	168.537	6127.84	1.57603	755.684
44	50.119	6148.69	181.101	6151.35	1.68708	757.835
45	39.811	6172.19	195.215	6175.27	1.81156	767.807
46	31.623	6196.27	211.401	6199.88	1.95403	770.273
47	25.119	6220.43	229.57	6224.67	2.11359	772.604
48	19.953	6248.42	252.861	6253.53	2.31738	775.26
49	15.849	6278.81	276.985	6284.92	2.52592	777.966
50	12.589	6310.12	304.122	6317.45	2.75929	780.692
51	10	6341.79	337.051	6350.74	3.04227	783.793
52	7.9433	6379.47	374.89	6390.47	3.36312	786.909
53	6.3096	6414.51	421.162	6428.32	3.75652	790.08
54	5.0119	6454.93	472.368	6472.2	4.18541	793.306
55	3.9811	6495.45	538.121	6517.7	4.73591	796.487
56	3.1623	6541.58	616.01	6570.52	5.37959	799.673
57	2.5119	6581.41	710.375	6619.63	6.16046	803.039
58	1.9953	6631.4	834.401	6683.68	7.1716	806.65
59	1.5849	6695.79	975.896	6766.53	8.29234	810.231
60	1.2589	6746.01	1152.11	6843.68	9.69167	813.722
61	1	6815.64	1377.88	6953.52	11.4292	817.694
62	0.79433	6909.26	1632.82	7099.58	13.2964	821.565
63	0.63096	6980.39	1961.68	7250.79	15.6968	825.901
64	0.50119	7096.76	2375.58	7483.81	18.5075	830.477
65	0.39811	7220.4	2850.58	7762.73	21.5439	835.308
66	0.31623	7344.11	3496.93	8134.16	25.4617	841.019
67	0.25119	7562.47	4243.8	8671.84	29.2997	847.105
68	0.19953	7741.64	5081.73	9260.5	33.2815	854.076
69	0.15849	8063.4	6157.93	10145.9	37.3686	862.082
70	0.12589	8363.99	7468.19	11212.9	41.7616	871.324
71	0.1	8693.45	9166.79	12633.5	46.5181	882.16