File: data/20200504/Z_p36_1.txt
Index	Frequency (Hz)	Z' (Ω)	-Z'' (Ω)	Z (Ω)	-Phase (°)	Time (s)
1	1000000	2914.91	1838.01	3446.01	32.2336	79.0692
2	794330	3149.54	1639.35	3550.64	27.4973	80.5143
3	630960	3441.88	1497.04	3753.35	23.5066	81.8943
4	501190	3704.89	1380.43	3953.71	20.4352	83.3643
5	398110	3986.55	1241.52	4175.4	17.298	85.7694
6	316230	4191.67	1124.66	4339.93	15.0192	87.0894
7	251190	4288.12	948.706	4391.81	12.4752	89.3244
8	199530	4447.94	854.467	4529.27	10.8743	90.6344
9	158490	4582.05	760.284	4644.69	9.42107	92.1145
10	125890	4683.22	671.087	4731.06	8.15474	93.4145
11	100000	4764.76	588.903	4801.02	7.04577	94.8095
12	79433	4835.24	515.912	4862.69	6.09031	96.1245
13	63096	4891.37	451.027	4912.12	5.26827	97.5246
14	50119	4937.1	394.305	4952.82	4.56628	98.9196
15	39811	4977.83	344.407	4989.73	3.95789	100.215
16	31623	5007.51	301.113	5016.56	3.44118	101.54
17	25119	5034.51	267.09	5041.59	3.0368	102.835
18	19953	5061.81	238.058	5067.41	2.69265	104.165
19	15849	5083.71	213.732	5088.2	2.40744	105.595
20	12589	5104.67	193.541	5108.34	2.1713	106.875
21	10000	5123.99	176.49	5127.02	1.9727	108.18
22	7943.3	5144.09	163.232	5146.68	1.8175	109.545
23	6309.6	5160.92	151.799	5163.16	1.68476	110.935
24	5011.9	5174.89	142.082	5176.84	1.57273	112.235
25	3981.1	5193.72	134.569	5195.46	1.4842	113.56
26	3162.3	5210.8	128.121	5212.37	1.40849	114.8
27	2511.9	5226.07	122.84	5227.51	1.34651	116.105
28	1995.3	5241.79	118.763	5243.13	1.29793	117.44
29	1584.9	5256	115.139	5257.26	1.25493	118.665
30	1258.9	5272.79	112.614	5273.99	1.22351	119.915
31	1000	5283.69	110.146	5284.84	1.19424	121.225
32	794.33	5299.94	109.169	5301.07	1.18002	122.71
33	630.96	5313.68	108.874	5314.79	1.17379	124.04
34	501.19	5326.16	109.727	5327.29	1.18021	125.38
35	398.11	5340.83	111.614	5342	1.19721	126.63
36	316.23	5353.51	114.581	5354.74	1.22611	127.955
37	251.19	5367.9	119.092	5369.22	1.27095	129.415
38	199.53	5380.87	124.686	5382.32	1.32742	130.78
39	158.49	5395.83	131.238	5397.43	1.39328	132.09
40	125.89	5413.4	140.448	5415.22	1.48618	133.455
41	100	5425.12	150.638	5427.21	1.59051	134.85
42	79.433	5444.77	163.247	5447.21	1.71735	136.33
43	63.096	5466.77	176.922	5469.63	1.85363	137.835
44	50.119	5486.02	193.891	5489.45	2.02415	139.28
45	39.811	5510.27	212.839	5514.38	2.212	148.346
46	31.623	5535.4	233.619	5540.32	2.41671	149.936
47	25.119	5564.89	257.999	5570.87	2.65444	151.571
48	19.953	5595.82	287.732	5603.21	2.9435	153.481
49	15.849	5629.68	319.066	5638.71	3.2438	155.526
50	12.589	5663.43	355.235	5674.56	3.58914	157.526
51	10	5701.28	397.302	5715.11	3.9863	159.766
52	7.9433	5745.02	445.876	5762.3	4.43787	162.106
53	6.3096	5791.29	502.507	5813.05	4.9591	164.526
54	5.0119	5838.66	569.029	5866.33	5.56639	166.886
55	3.9811	5890.04	648.737	5925.66	6.2853	169.401
56	3.1623	5946.58	745.7	5993.16	7.14756	171.871
57	2.5119	6012.77	859.489	6073.89	8.13498	174.446
58	1.9953	6073.3	999.736	6155.03	9.34773	177.051
59	1.5849	6147.99	1164.31	6257.26	10.7237	179.741
60	1.2589	6231.15	1366.39	6379.2	12.3682	182.531
61	1	6320.73	1612.36	6523.14	14.3105	187.546
62	0.79433	6429.92	1913.93	6708.73	16.5761	190.681
63	0.63096	6529.72	2253.94	6907.79	19.0438	194.241
64	0.50119	6627.55	2720.05	7164.01	22.314	198.031
65	0.39811	6751.66	3256.5	7495.98	25.7492	202.352
66	0.31623	6902.12	3974.8	7964.82	29.9368	207.187
67	0.25119	7112.13	4770.58	8563.92	33.8524	212.607
68	0.19953	7346.58	5802.63	9361.77	38.3031	218.792
69	0.15849	7581.83	7058.62	10359	42.9533	226.137
70	0.12589	7794.56	8670.6	11659.1	48.0456	234.682
71	0.1	8255.82	10639.9	13467.2	52.191	244.937