File: data/20200504/Z_p39_2.txt
Index	Frequency (Hz)	Z' (Ω)	-Z'' (Ω)	Z (Ω)	-Phase (°)	Time (s)
1	1000000	1470.36	643.143	1604.87	23.6248	297.924
2	794330	1536.84	586.302	1644.88	20.8818	299.464
3	630960	1625.37	534.467	1710.98	18.2024	301.079
4	501190	1708.53	484.798	1775.98	15.8414	302.799
5	398110	1773.22	424.548	1823.34	13.4644	304.344
6	316230	1841.67	378.763	1880.21	11.6216	305.929
7	251190	1865.48	310.711	1891.18	9.45628	308.389
8	199530	1918.2	279.622	1938.48	8.29375	309.794
9	158490	1958.63	244.757	1973.87	7.12292	311.344
10	125890	1990.19	215.402	2001.81	6.1772	312.754
11	100000	2015.35	188.887	2024.18	5.35437	314.314
12	79433	2036.8	166.18	2043.57	4.66436	315.754
13	63096	2053.62	146.769	2058.86	4.08789	317.299
14	50119	2068.5	130.319	2072.6	3.60498	318.66
15	39811	2081.71	116.729	2084.98	3.20942	319.995
16	31623	2091.49	105.295	2094.14	2.8821	321.46
17	25119	2101.91	97.2623	2104.16	2.64937	322.85
18	19953	2111.1	90.804	2113.05	2.46293	324.21
19	15849	2121.19	85.9925	2122.93	2.32149	325.675
20	12589	2130.24	82.7831	2131.84	2.22545	327.045
21	10000	2138.42	80.8405	2139.95	2.16497	328.575
22	7943.3	2148.73	80.1401	2150.22	2.13594	330.05
23	6309.6	2158.03	80.233	2159.52	2.12921	331.44
24	5011.9	2166.33	81.2231	2167.86	2.1472	332.865
25	3981.1	2176.71	83.1467	2178.3	2.18754	334.35
26	3162.3	2187.35	85.8232	2189.03	2.24692	335.84
27	2511.9	2197.51	89.3652	2199.33	2.32874	337.345
28	1995.3	2209.28	93.6769	2211.26	2.42798	338.805
29	1584.9	2220.87	98.8672	2223.07	2.54897	340.135
30	1258.9	2232.67	104.83	2235.13	2.6882	341.48
31	1000	2247.12	112.323	2249.92	2.86157	342.93
32	794.33	2260.58	120.669	2263.8	3.05554	344.43
33	630.96	2276.18	130.556	2279.92	3.28275	345.71
34	501.19	2292.56	141.828	2296.94	3.54006	347.12
35	398.11	2310.65	155.061	2315.85	3.83918	348.54
36	316.23	2330.03	169.979	2336.22	4.17244	349.945
37	251.19	2350.24	186.639	2357.64	4.54047	351.245
38	199.53	2373.69	205.862	2382.6	4.95666	352.675
39	158.49	2398.78	227.285	2409.52	5.41264	354.125
40	125.89	2428.28	251.419	2441.26	5.91121	355.73
41	100	2458.56	278.43	2474.28	6.46116	357.29
42	79.433	2492.23	308.865	2511.29	7.06471	358.825
43	63.096	2530.51	342.774	2553.62	7.71413	360.395
44	50.119	2574.97	381.231	2603.04	8.42159	361.915
45	39.811	2620.93	423.663	2654.95	9.1822	371.195
46	31.623	2674.61	471.723	2715.89	10.0024	372.881
47	25.119	2733.27	525.184	2783.27	10.8766	374.726
48	19.953	2798.1	586.243	2858.86	11.8331	376.711
49	15.849	2869.54	653.024	2942.91	12.8205	378.791
50	12.589	2951.69	727.717	3040.08	13.8496	380.896
51	10	3041.55	811.563	3147.96	14.9399	383.386
52	7.9433	3141.87	904.351	3269.43	16.0579	385.801
53	6.3096	3251.72	1008.34	3404.47	17.2283	388.186
54	5.0119	3371.13	1125.23	3553.97	18.4582	390.686
55	3.9811	3504.4	1257.89	3723.32	19.7453	393.221
56	3.1623	3648.11	1406.93	3910.01	21.0897	395.891
57	2.5119	3806.7	1579.5	4121.38	22.5349	398.506
58	1.9953	3979.91	1778.45	4359.2	24.0779	401.326
59	1.5849	4171.57	2005.72	4628.71	25.6785	404.026
60	1.2589	4377.89	2271.1	4931.92	27.4188	407.006
61	1	4610.09	2585.3	5285.52	29.2833	412.241
62	0.79433	4873.48	2947.52	5695.5	31.1659	415.611
63	0.63096	5154.37	3380.08	6163.8	33.2557	419.146
64	0.50119	5478.88	3889.12	6718.88	35.3686	423.121
65	0.39811	5823.19	4481.5	7348.03	37.5817	427.522
66	0.31623	6254.82	5204.77	8137.1	39.7646	434.717
67	0.25119	6711.28	6031.26	9023.15	41.9452	441.292
68	0.19953	7277.33	7012.5	10106.2	43.9383	450.692
69	0.15849	7920.03	8185.02	11389.5	45.9426	460.882
70	0.12589	8620.56	9552	12866.8	47.9342	470.062
71	0.1	9419.67	11245.2	14669.1	50.0483	480.843