File: data/20200504/Z_p46_1.txt
Index	Frequency (Hz)	Z' (Ω)	-Z'' (Ω)	Z (Ω)	-Phase (°)	Time (s)
1	1000000	1868.77	825.114	2042.82	23.8228	23.5112
2	794330	1944.9	735.319	2079.26	20.7104	24.9612
3	630960	2052.6	660.883	2156.37	17.8472	26.3963
4	501190	2154.49	594.514	2235.01	15.4264	27.8363
5	398110	2243.17	515.456	2301.63	12.9413	29.2563
6	316230	2324.29	457.4	2368.87	11.133	30.6363
7	251190	2347.08	373.225	2376.57	9.03532	31.9464
8	199530	2411.25	332.416	2434.06	7.84935	33.3664
9	158490	2460.44	292.754	2477.8	6.7854	34.7614
10	125890	2499.04	256.392	2512.16	5.85783	36.0314
11	100000	2528.08	223.953	2537.98	5.0624	37.4515
12	79433	2553.38	195.837	2560.88	4.38584	38.7315
13	63096	2573.38	171.58	2579.1	3.81455	40.2065
14	50119	2589.61	151.015	2594.01	3.33747	41.6215
15	39811	2605.79	133.843	2609.23	2.94033	43.0066
16	31623	2616.27	119.241	2618.99	2.60956	44.2516
17	25119	2626.9	108.131	2629.13	2.35713	45.5366
18	19953	2637.93	99.2207	2639.8	2.15406	47.1216
19	15849	2648.51	92.1961	2650.12	1.99369	48.5167
20	12589	2657.84	86.9146	2659.26	1.87297	49.7867
21	10000	2666.22	82.7986	2667.51	1.77873	51.0867
22	7943.3	2675.88	80.0791	2677.08	1.71414	52.3917
23	6309.6	2685.8	78.2838	2686.94	1.66954	53.6768
24	5011.9	2695.42	77.2186	2696.52	1.64097	54.9368
25	3981.1	2705.37	76.8929	2706.46	1.62804	56.1968
26	3162.3	2714.91	77.0806	2716.01	1.62628	57.4918
27	2511.9	2723.74	77.7194	2724.85	1.63444	58.7819
28	1995.3	2734.33	78.9143	2735.46	1.65313	60.1019
29	1584.9	2746.25	80.6968	2747.44	1.68311	61.4569
30	1258.9	2755.57	82.7132	2756.81	1.71932	62.7219
31	1000	2765.7	85.4314	2767.02	1.76928	63.972
32	794.33	2777.38	88.6179	2778.79	1.82752	65.352
33	630.96	2790.06	92.6168	2791.59	1.90125	66.687
34	501.19	2801.9	97.4275	2803.59	1.99148	68.037
35	398.11	2815.19	103.041	2817.07	2.09618	69.4371
36	316.23	2829.33	109.666	2831.45	2.21971	70.6421
37	251.19	2841.29	117.147	2843.7	2.36098	71.9571
38	199.53	2856.83	126.135	2859.61	2.5281	73.3371
39	158.49	2872.81	136.095	2876.03	2.71228	74.8022
40	125.89	2889.94	147.386	2893.7	2.91953	76.2922
41	100	2909.15	160.033	2913.55	3.14868	77.7072
42	79.433	2929.24	174.11	2934.41	3.40158	79.3072
43	63.096	2952.82	190.031	2958.93	3.68222	80.8223
44	50.119	2977.12	207.111	2984.31	3.97952	82.2673
45	39.811	3004.95	225.942	3013.43	4.29998	91.4125
46	31.623	3036.3	246.46	3046.28	4.64059	93.1875
47	25.119	3068.44	268.181	3080.13	4.99494	94.9025
48	19.953	3103.31	293.422	3117.15	5.40132	96.8076
49	15.849	3141.41	319.824	3157.65	5.8132	98.7776
50	12.589	3182.42	349.011	3201.5	6.25853	100.843
51	10	3226.6	382.094	3249.14	6.75352	103.108
52	7.9433	3273.06	418.528	3299.71	7.2869	105.573
53	6.3096	3322.21	460.708	3354.01	7.89514	107.883
54	5.0119	3373.99	508.724	3412.12	8.57437	110.228
55	3.9811	3429.06	564.81	3475.26	9.35338	112.718
56	3.1623	3487.25	631.456	3543.96	10.2637	115.183
57	2.5119	3551.57	710.19	3621.88	11.308	117.808
58	1.9953	3617.78	804.862	3706.23	12.5426	120.548
59	1.5849	3691.1	916.762	3803.25	13.9484	123.238
60	1.2589	3769.22	1049.24	3912.53	15.5556	126.018
61	1	3857.9	1213.98	4044.39	17.4674	129.378
62	0.79433	3962.3	1404.5	4203.86	19.5176	132.538
63	0.63096	4064.55	1641.13	4383.37	21.9872	136.153
64	0.50119	4188.72	1928.52	4611.35	24.7217	139.963
65	0.39811	4314.09	2280.85	4879.92	27.8652	144.278
66	0.31623	4491.58	2701.22	5241.26	31.0225	149.074
67	0.25119	4648.86	3206.4	5647.38	34.5947	154.459
68	0.19953	4861.41	3809.06	6175.93	38.0797	160.624
69	0.15849	5106.69	4548.43	6838.6	41.6908	168.149
70	0.12589	5410.41	5460.42	7686.92	45.2636	177.249
71	0.1	5791.45	6549.28	8742.65	48.5141	188.499