File: data/20200504/Z_p42_3.txt
Index	Frequency (Hz)	Z' (Ω)	-Z'' (Ω)	Z (Ω)	-Phase (°)	Time (s)
1	1000000	1770.8	814.646	1949.2	24.7046	668.952
2	794330	1852.84	735.887	1993.63	21.6613	671.053
3	630960	1961.4	670.32	2072.78	18.8682	673.139
4	501190	2068.88	608.803	2156.59	16.3975	675.35
5	398110	2158	536.915	2223.79	13.9716	677.461
6	316230	2244.05	483.374	2295.52	12.1559	679.527
7	251190	2275.21	403.467	2310.71	10.0558	681.508
8	199530	2345.11	365.295	2373.39	8.85376	683.579
9	158490	2400.69	326.821	2422.84	7.75235	685.65
10	125890	2444.75	290.533	2461.95	6.77722	687.586
11	100000	2481.88	257.974	2495.25	5.93418	689.732
12	79433	2512.8	229.426	2523.25	5.21681	691.708
13	63096	2537.54	203.988	2545.72	4.59601	693.759
14	50119	2558.64	182.099	2565.12	4.07089	695.89
15	39811	2578.11	163.263	2583.27	3.6235	697.956
16	31623	2593.86	147.643	2598.05	3.25778	699.932
17	25119	2608.29	135.743	2611.82	2.97916	701.928
18	19953	2623.37	126.128	2626.4	2.75258	703.879
19	15849	2635.86	118.606	2638.53	2.5764	705.825
20	12589	2647.5	113.284	2649.92	2.45015	707.756
21	10000	2660.72	109.673	2662.98	2.36035	709.748
22	7943.3	2673.26	107.511	2675.42	2.30304	711.769
23	6309.6	2686.55	106.803	2688.68	2.27657	713.785
24	5011.9	2699.13	106.924	2701.25	2.26854	715.726
25	3981.1	2711.82	108.343	2713.99	2.28787	717.707
26	3162.3	2725.73	110.61	2727.97	2.32377	719.718
27	2511.9	2739.91	113.899	2742.28	2.38043	721.684
28	1995.3	2755.11	118	2757.64	2.45245	723.655
29	1584.9	2769.47	123.134	2772.2	2.54577	725.591
30	1258.9	2785.06	129.495	2788.07	2.66214	729.093
31	1000	2804.03	136.61	2807.35	2.7892	730.969
32	794.33	2820.92	144.787	2824.64	2.9382	733.08
33	630.96	2840.31	154.445	2844.51	3.11244	735.051
34	501.19	2858.91	165.255	2863.68	3.30822	737.027
35	398.11	2883.02	177.756	2888.5	3.52817	738.948
36	316.23	2905.47	192.042	2911.81	3.78155	740.979
37	251.19	2930.83	207.592	2938.17	4.05151	742.955
38	199.53	2957.59	225.324	2966.16	4.35667	744.916
39	158.49	2987.28	244.601	2997.28	4.68098	746.902
40	125.89	3019.34	266.035	3031.04	5.03535	748.973
41	100	3053.95	289.203	3067.61	5.40967	751.029
42	79.433	3092.88	315.042	3108.88	5.81611	753.12
43	63.096	3132.95	343.526	3151.73	6.25745	755.296
44	50.119	3178.67	374.761	3200.69	6.72406	757.437
45	39.811	3229.02	409.833	3254.92	7.23341	768.815
46	31.623	3281.3	447.825	3311.72	7.77159	771.041
47	25.119	3340.14	490.263	3375.93	8.3502	773.257
48	19.953	3402.74	539.044	3445.17	9.00169	775.918
49	15.849	3472.56	592.61	3522.77	9.68452	778.524
50	12.589	3548.06	651.54	3607.38	10.4055	781.175
51	10	3631.77	717.144	3701.9	11.1702	784.146
52	7.9433	3720.92	789.633	3803.78	11.9812	787.127
53	6.3096	3823.32	871.54	3921.39	12.8414	790.203
54	5.0119	3932.83	962.276	4048.84	13.7489	793.229
55	3.9811	4051.39	1064.01	4188.78	14.7152	796.34
56	3.1623	4184.74	1178.81	4347.6	15.7321	799.526
57	2.5119	4329.16	1307.88	4522.41	16.81	802.777
58	1.9953	4486.15	1452.86	4715.54	17.9448	806.033
59	1.5849	4660.99	1617.07	4933.53	19.1335	809.469
60	1.2589	4849.62	1803.37	5174.07	20.3981	813.055
61	1	5059.65	2016.59	5446.71	21.7304	816.957
62	0.79433	5295.53	2259.38	5757.38	23.1059	820.828
63	0.63096	5550.49	2524.3	6097.55	24.4555	825.034
64	0.50119	5823.78	2854.46	6485.7	26.1113	829.53
65	0.39811	6147.77	3227.09	6943.28	27.6959	834.411
66	0.31623	6474.99	3661.77	7438.69	29.4892	839.837
67	0.25119	6887.2	4164.16	8048.21	31.1582	845.958
68	0.19953	7292.79	4706.77	8679.77	32.8382	852.889
69	0.15849	7803.2	5349	9460.53	34.4302	860.9
70	0.12589	8324.58	6125.37	10335.3	36.3463	870.156
71	0.1	8906.84	7103.23	11392.4	38.5725	881.028