File: data/20200504/Z_p44_3.txt
Index	Frequency (Hz)	Z' (Ω)	-Z'' (Ω)	Z (Ω)	-Phase (°)	Time (s)
1	1000000	2047.51	1059.89	2305.58	27.3683	412.602
2	794330	2165.77	958.709	2368.48	23.8772	414.822
3	630960	2316.88	880.132	2478.42	20.8007	416.942
4	501190	2458.11	803.951	2586.24	18.1109	419.257
5	398110	2591.79	717.668	2689.32	15.4774	421.362
6	316230	2709.53	651.288	2786.71	13.5157	423.672
7	251190	2757.24	547.87	2811.15	11.2384	425.817
8	199530	2851.32	496.67	2894.26	9.88116	427.932
9	158490	2925.42	444.364	2958.97	8.63708	430.067
10	125890	2987.44	396.6	3013.65	7.56213	432.152
11	100000	3037.98	352.296	3058.33	6.6147	434.232
12	79433	3079.98	312.748	3095.82	5.79806	436.312
13	63096	3115.48	278.077	3127.86	5.10052	438.467
14	50119	3144.87	247.524	3154.6	4.50031	440.627
15	39811	3170.66	221.325	3178.37	3.99301	442.798
16	31623	3193.53	199.009	3199.73	3.56585	444.798
17	25119	3213.4	180.703	3218.47	3.21859	447.043
18	19953	3233.33	165.735	3237.57	2.93432	449.038
19	15849	3251.56	153.336	3255.17	2.69993	451.093
20	12589	3267.47	143.576	3270.62	2.51602	453.208
21	10000	3280.92	135.914	3283.74	2.37216	455.313
22	7943.3	3298.58	130.146	3301.15	2.25944	457.333
23	6309.6	3314.07	125.855	3316.46	2.17482	459.398
24	5011.9	3328.33	122.631	3330.59	2.11008	461.558
25	3981.1	3343.98	120.522	3346.15	2.06414	463.613
26	3162.3	3360.3	119.207	3362.41	2.03173	465.728
27	2511.9	3376.9	118.563	3378.98	2.01083	467.798
28	1995.3	3391.46	118.744	3393.54	2.00526	469.868
29	1584.9	3407.7	119.357	3409.79	2.00601	471.943
30	1258.9	3424.55	120.961	3426.69	2.02294	474.053
31	1000	3440.85	122.33	3443.03	2.03614	476.188
32	794.33	3457.55	124.737	3459.8	2.06614	478.248
33	630.96	3473.44	127.934	3475.8	2.10936	480.358
34	501.19	3491.73	131.769	3494.21	2.16118	482.508
35	398.11	3510.1	136.539	3512.75	2.22762	484.623
36	316.23	3529.07	142.229	3531.93	2.30789	486.913
37	251.19	3545.6	148.675	3548.71	2.40113	489.003
38	199.53	3565.74	156.644	3569.18	2.51539	490.998
39	158.49	3586.77	165.715	3590.6	2.64527	493.058
40	125.89	3606.25	175.979	3610.54	2.79372	495.229
41	100	3628.93	187.897	3633.79	2.96399	497.534
42	79.433	3655.58	200.774	3661.09	3.14367	499.754
43	63.096	3682.8	216.076	3689.13	3.35779	501.939
44	50.119	3711.79	232.174	3719.04	3.57921	504.029
45	39.811	3743.46	249.263	3751.75	3.80949	513.959
46	31.623	3778.9	268.701	3788.44	4.0672	516.354
47	25.119	3816.22	289.117	3827.16	4.33246	518.784
48	19.953	3855.15	311.888	3867.75	4.62525	521.379
49	15.849	3897.11	335.778	3911.55	4.92449	524.054
50	12.589	3945.68	361.233	3962.18	5.23094	526.954
51	10	3991.95	387.494	4010.71	5.54427	529.954
52	7.9433	4046.64	417.803	4068.15	5.89472	533.039
53	6.3096	4099.82	449.707	4124.41	6.25971	536.199
54	5.0119	4157.02	486.297	4185.36	6.67226	539.304
55	3.9811	4219.74	527.549	4252.59	7.1261	542.414
56	3.1623	4282.78	573.571	4321.01	7.62795	545.634
57	2.5119	4348.47	627.158	4393.46	8.20689	548.92
58	1.9953	4420.46	690.24	4474.03	8.87487	552.3
59	1.5849	4497.34	761.938	4561.42	9.61573	555.8
60	1.2589	4578.76	848.657	4656.74	10.5004	559.5
61	1	4663.62	952.309	4759.86	11.5411	563.66
62	0.79433	4760.87	1073.56	4880.41	12.7075	567.595
63	0.63096	4865.92	1219.41	5016.39	14.0687	571.85
64	0.50119	4970.9	1383.58	5159.86	15.5538	576.39
65	0.39811	5088	1595.79	5332.38	17.4134	581.43
66	0.31623	5247.4	1861.59	5567.83	19.5329	587.025
67	0.25119	5409.83	2150.28	5821.52	21.6767	593.19
68	0.19953	5565.44	2537.76	6116.73	24.5123	600.185
69	0.15849	5772.25	2929.81	6473.22	26.9109	608.351
70	0.12589	6006.24	3451.98	6927.56	29.8874	617.626
71	0.1	6317.69	4102.52	7532.85	32.9985	628.741