File: data/20200504/Z_p45_2.txt
Index	Frequency (Hz)	Z' (Ω)	-Z'' (Ω)	Z (Ω)	-Phase (°)	Time (s)
1	1000000	1025.21	403.64	1101.81	21.4903	352.347
2	794330	1067.56	368.86	1129.49	19.0609	353.702
3	630960	1120.56	338.192	1170.48	16.7942	355.097
4	501190	1171.04	307.258	1210.68	14.7019	356.632
5	398110	1206.38	268.274	1235.85	12.5374	358.072
6	316230	1248.78	238.927	1271.43	10.8314	359.532
7	251190	1282.6	210.881	1299.82	9.33684	360.822
8	199530	1309.78	184.883	1322.76	8.03454	362.242
9	158490	1331.62	161.457	1341.37	6.91331	363.632
10	125890	1349.55	141.317	1356.93	5.97789	364.972
11	100000	1363.92	123.615	1369.51	5.17868	368.157
12	79433	1376.29	108.355	1380.54	4.50162	369.412
13	63096	1386.22	95.5662	1389.51	3.94374	370.852
14	50119	1395.09	84.8941	1397.67	3.48227	372.262
15	39811	1403.34	76.0391	1405.4	3.1015	373.608
16	31623	1409.81	68.7179	1411.49	2.79054	374.948
17	25119	1417.1	63.2754	1418.52	2.55663	376.278
18	19953	1422.73	59.1874	1423.96	2.38221	377.623
19	15849	1428.43	56.0833	1429.53	2.24841	378.978
20	12589	1433.73	53.9595	1434.75	2.15535	380.318
21	10000	1440.73	52.7845	1441.69	2.09823	381.663
22	7943.3	1446.57	52.4652	1447.53	2.07713	382.978
23	6309.6	1452.08	52.7838	1453.04	2.08182	384.303
24	5011.9	1458.59	53.7356	1459.58	2.10986	385.723
25	3981.1	1465.69	55.4255	1466.74	2.16562	387.073
26	3162.3	1471.47	57.4736	1472.59	2.23675	388.353
27	2511.9	1479.04	60.172	1480.27	2.32968	389.668
28	1995.3	1487.3	63.5641	1488.66	2.44721	390.963
29	1584.9	1494.83	67.4027	1496.35	2.58174	392.293
30	1258.9	1503.95	71.9662	1505.67	2.73959	393.583
31	1000	1512.17	77.3512	1514.15	2.92826	394.948
32	794.33	1522.45	83.3987	1524.73	3.13549	396.373
33	630.96	1532.68	90.4569	1535.35	3.37761	397.693
34	501.19	1544.75	98.3908	1547.88	3.64445	399.098
35	398.11	1557.64	107.374	1561.34	3.94339	400.403
36	316.23	1571.43	117.728	1575.83	4.2845	401.678
37	251.19	1586.94	129.239	1592.2	4.65582	402.978
38	199.53	1602.77	142.048	1609.05	5.0647	404.223
39	158.49	1620.92	156.152	1628.43	5.50263	405.613
40	125.89	1641.97	171.827	1650.93	5.97408	407.038
41	100	1663.65	188.937	1674.34	6.47922	408.403
42	79.433	1688.64	208.036	1701.41	7.0233	409.818
43	63.096	1715.73	228.674	1730.9	7.5917	411.263
44	50.119	1746.03	251.812	1764.09	8.2066	421.113
45	39.811	1779.38	276.992	1800.81	8.84807	430.234
46	31.623	1814.59	304.347	1839.93	9.52117	431.924
47	25.119	1854.48	335.184	1884.53	10.2452	433.579
48	19.953	1897.99	369.86	1933.69	11.027	435.494
49	15.849	1943.8	408.211	1986.2	11.8602	437.489
50	12.589	1996.07	450.77	2046.33	12.7256	439.609
51	10	2051.89	497.762	2111.4	13.6358	441.984
52	7.9433	2112.93	551.458	2183.71	14.6274	444.429
53	6.3096	2179.7	611.139	2263.76	15.6623	446.954
54	5.0119	2252.11	678.885	2352.21	16.7751	449.579
55	3.9811	2333.72	756.042	2453.13	17.9505	452.184
56	3.1623	2421.83	844.301	2564.78	19.2196	454.779
57	2.5119	2518.43	943.315	2689.3	20.5341	457.399
58	1.9953	2622.77	1057.33	2827.88	21.956	460.189
59	1.5849	2740.6	1190.1	2987.85	23.4729	462.939
60	1.2589	2861.07	1339.89	3159.27	25.0945	467.579
61	1	2999.5	1518.17	3361.82	26.8458	470.819
62	0.79433	3147.48	1724.77	3589.07	28.722	474.039
63	0.63096	3316.36	1965.12	3854.86	30.649	477.624
64	0.50119	3492.46	2253.17	4156.21	32.8282	481.645
65	0.39811	3688.02	2608.74	4517.41	35.2739	485.995
66	0.31623	3910.15	3025.02	4943.69	37.7268	490.96
67	0.25119	4133.42	3529.79	5435.5	40.4961	496.555
68	0.19953	4415.25	4117.04	6036.92	42.9983	502.87
69	0.15849	4726.55	4847.35	6770.31	45.7229	510.235
70	0.12589	5118.61	5748.37	7697.01	48.3167	518.89
71	0.1	5560.55	6720.88	8722.95	50.3972	529.185