File: data/20200504/Z_p48_1.txt
Index	Frequency (Hz)	Z' (Ω)	-Z'' (Ω)	Z (Ω)	-Phase (°)	Time (s)
1	1000000	1204.19	532.92	1316.85	23.872	39.5125
2	794330	1262.97	493.108	1355.82	21.3274	40.8925
3	630960	1336.27	456.228	1412.01	18.8509	42.3776
4	501190	1408.27	417.279	1468.79	16.5049	43.9776
5	398110	1463.11	369.554	1509.06	14.1753	46.3776
6	316230	1523.15	332.764	1559.07	12.3238	47.6977
7	251190	1571.04	296.11	1598.71	10.6739	49.0127
8	199530	1610.84	261.934	1631.99	9.2359	50.4127
9	158490	1642.59	230.856	1658.73	8.00019	53.4278
10	125890	1669.83	202.974	1682.12	6.9305	54.5878
11	100000	1686.98	175.284	1696.06	5.93198	56.0128
12	79433	1706.79	155.422	1713.85	5.20304	57.3128
13	63096	1723.57	137.955	1729.08	4.57621	58.6929
14	50119	1738.95	123.302	1743.32	4.05584	60.0629
15	39811	1751.16	110.711	1754.65	3.61751	61.4329
16	31623	1760.78	100.188	1763.63	3.25661	63.6279
17	25119	1771.86	92.328	1774.26	2.98287	64.828
18	19953	1781.12	85.8587	1783.19	2.7598	67.093
19	15849	1790.16	81.0585	1792	2.59258	68.298
20	12589	1798.02	77.5547	1799.7	2.46983	69.7131
21	10000	1807.31	75.3865	1808.88	2.38854	70.9981
22	7943.3	1814.9	74.2092	1816.42	2.34145	73.1331
23	6309.6	1823.79	73.97	1825.29	2.32255	74.3431
24	5011.9	1832.28	74.5847	1833.8	2.33099	75.6682
25	3981.1	1841.79	76.2248	1843.36	2.36991	76.9432
26	3162.3	1851.13	78.5048	1852.79	2.42841	78.2332
27	2511.9	1860.5	81.7181	1862.29	2.51497	79.5282
28	1995.3	1870.38	85.6111	1872.34	2.62071	80.8033
29	1584.9	1881.01	90.5697	1883.19	2.75663	82.0683
30	1258.9	1892.16	96.435	1894.62	2.91758	83.3333
31	1000	1904.14	103.441	1906.95	3.10948	84.6583
32	794.33	1917.28	111.664	1920.53	3.33319	86.0734
33	630.96	1930.36	121.149	1934.16	3.59116	87.3184
34	501.19	1946.44	132.266	1950.93	3.88744	88.6034
35	398.11	1962.76	145.036	1968.11	4.22613	89.9284
36	316.23	1980.28	159.591	1986.7	4.60751	91.2435
37	251.19	2000.64	176.128	2008.38	5.03111	92.5535
38	199.53	2022.81	194.763	2032.16	5.49969	93.8285
39	158.49	2047.41	215.619	2058.73	6.01183	95.2235
40	125.89	2074.26	238.571	2087.94	6.56103	96.5886
41	100	2103.82	264.285	2120.35	7.16008	97.9086
42	79.433	2137.46	292.714	2157.41	7.79786	99.2786
43	63.096	2174.96	324.37	2199.01	8.48249	100.759
44	50.119	2215.55	359.524	2244.53	9.21723	110.704
45	39.811	2261.92	398.962	2296.83	10.0031	119.859
46	31.623	2313.09	442.306	2355	10.8253	121.544
47	25.119	2370.76	491.107	2421.09	11.7034	123.284
48	19.953	2432.66	546.281	2493.24	12.6565	125.184
49	15.849	2500.57	606.492	2573.07	13.6333	127.169
50	12.589	2577.54	673.7	2664.13	14.6479	129.134
51	10	2662.9	748.194	2766.01	15.6937	131.414
52	7.9433	2757.15	830.692	2879.57	16.7668	133.719
53	6.3096	2859.73	923.213	3005.06	17.8917	136.204
54	5.0119	2974.88	1026.19	3146.9	19.032	138.614
55	3.9811	3100.72	1140.76	3303.9	20.1986	140.999
56	3.1623	3235.08	1267.87	3474.66	21.4009	145.639
57	2.5119	3385.89	1413.2	3668.98	22.6547	149.29
58	1.9953	3548.72	1577.82	3883.67	23.9708	151.785
59	1.5849	3726.8	1766.83	4124.41	25.3651	154.51
60	1.2589	3920.85	1982.62	4393.61	26.824	157.415
61	1	4130.86	2236.15	4697.28	28.4279	162.405
62	0.79433	4365.76	2532.48	5047.11	30.1171	165.5
63	0.63096	4615.99	2867.01	5433.88	31.8446	169.1
64	0.50119	4890.06	3280.44	5888.46	33.8553	172.885
65	0.39811	5193.46	3755.7	6409.15	35.8729	177.175
66	0.31623	5549.75	4348.41	7050.42	38.0799	181.945
67	0.25119	5939.2	4998.66	7762.77	40.0853	187.34
68	0.19953	6401.99	5790.42	8632.17	42.1284	193.575
69	0.15849	6896.97	6740.86	9644.04	44.3442	200.89
70	0.12589	7507.3	7925	10916.3	46.5504	209.406
71	0.1	8224.31	9169.46	12317.4	48.1103	219.641