File: data/20200504/Z_p46_2.txt
Index	Frequency (Hz)	Z' (Ω)	-Z'' (Ω)	Z (Ω)	-Phase (°)	Time (s)
1	1000000	1866.48	822.037	2039.48	23.7697	236.431
2	794330	1945.8	734.889	2079.95	20.6905	238.756
3	630960	2054.44	658.927	2157.53	17.7827	241.071
4	501190	2153.41	597.414	2234.75	15.5054	242.826
5	398110	2242.52	515.53	2301.01	12.9467	244.891
6	316230	2323.99	458.032	2368.69	11.1495	247.121
7	251190	2347.82	373.151	2377.29	9.03077	249.071
8	199530	2411.76	332.554	2434.58	7.85093	251.961
9	158490	2461.03	292.417	2478.34	6.77606	254.631
10	125890	2499.2	256.572	2512.34	5.86154	257.541
11	100000	2528.75	223.658	2538.62	5.05445	259.716
12	79433	2554.11	195.76	2561.6	4.38288	261.351
13	63096	2574.66	171.678	2580.38	3.81483	264.021
14	50119	2590.47	151.073	2594.88	3.33763	266.522
15	39811	2605.46	133.778	2608.89	2.93928	268.652
16	31623	2617.6	119.253	2620.31	2.60849	270.242
17	25119	2629.06	108.28	2631.29	2.35845	271.632
18	19953	2639.76	99.2508	2641.63	2.15321	273.057
19	15849	2648.68	92.219	2650.28	1.99406	274.482
20	12589	2658.64	86.8868	2660.06	1.87181	276.147
21	10000	2667.55	82.8652	2668.84	1.77927	277.497
22	7943.3	2677	80.1729	2678.2	1.71543	278.822
23	6309.6	2685.7	78.2783	2686.84	1.66949	280.437
24	5011.9	2696.24	77.263	2697.34	1.64141	281.927
25	3981.1	2705.15	76.854	2706.24	1.62735	283.427
26	3162.3	2715.93	77.1871	2717.03	1.62792	284.932
27	2511.9	2725.51	77.7477	2726.62	1.63397	286.342
28	1995.3	2736.64	79.0813	2737.78	1.65523	287.717
29	1584.9	2746.97	80.6411	2748.15	1.68151	288.917
30	1258.9	2757.54	82.8566	2758.79	1.72106	290.177
31	1000	2767.67	85.5894	2768.99	1.77129	291.807
32	794.33	2780.09	88.8232	2781.51	1.82996	293.302
33	630.96	2790.88	92.7778	2792.42	1.90399	294.697
34	501.19	2802.51	97.3939	2804.2	1.99036	296.062
35	398.11	2816.05	103.118	2817.94	2.09711	297.512
36	316.23	2829.83	109.702	2831.96	2.22003	298.767
37	251.19	2844.04	117.339	2846.46	2.36256	300.232
38	199.53	2857.91	126.136	2860.69	2.52715	301.547
39	158.49	2874.53	136.268	2877.76	2.71409	302.922
40	125.89	2890.65	147.331	2894.41	2.91772	304.292
41	100	2909.72	160.188	2914.13	3.1511	305.617
42	79.433	2930.42	174.28	2935.6	3.40353	306.997
43	63.096	2954.74	190.424	2960.87	3.68745	308.492
44	50.119	2979.59	207.172	2986.79	3.97739	309.982
45	39.811	3006.77	226.119	3015.26	4.30074	319.963
46	31.623	3036.65	246.325	3046.63	4.63752	321.503
47	25.119	3071.22	268.913	3082.97	5.004	323.108
48	19.953	3106.38	294.118	3120.27	5.40876	325.038
49	15.849	3144.89	320.481	3161.18	5.81865	326.983
50	12.589	3185.94	349.91	3205.09	6.26765	328.968
51	10	3229.76	382.885	3252.38	6.7608	331.243
52	7.9433	3276.26	419.085	3302.95	7.28945	333.733
53	6.3096	3325.51	461.318	3357.35	7.89773	336.033
54	5.0119	3376.88	509.427	3415.09	8.57879	338.378
55	3.9811	3433.45	565.462	3479.71	9.3522	340.848
56	3.1623	3490.46	632.06	3547.23	10.264	343.543
57	2.5119	3553.11	711.018	3623.56	11.3161	346.193
58	1.9953	3620.57	804.913	3708.96	12.534	348.813
59	1.5849	3696.07	916.051	3807.9	13.9199	351.638
60	1.2589	3772.81	1053.34	3917.09	15.5993	354.448
61	1	3862.54	1214.58	4049	17.4558	357.798
62	0.79433	3965.22	1406.03	4207.12	19.524	361.163
63	0.63096	4071.3	1644.99	4391.07	22.0009	364.668
64	0.50119	4189.94	1917.8	4607.99	24.5943	369.283
65	0.39811	4321.55	2283.8	4887.89	27.855	373.834
66	0.31623	4491.77	2704.32	5243.03	31.0505	378.724
67	0.25119	4654.22	3206.01	5651.57	34.5606	384.124
68	0.19953	4871.13	3802.49	6179.54	37.9762	390.359
69	0.15849	5114.39	4553.06	6847.43	41.6769	397.684
70	0.12589	5432.62	5470.84	7709.96	45.2008	406.464
71	0.1	5804.23	6465.91	8688.9	48.0867	416.704