File: data/20200504/Z_p46_3.txt
Index	Frequency (Hz)	Z' (Ω)	-Z'' (Ω)	Z (Ω)	-Phase (°)	Time (s)
1	1000000	1871.44	821.107	2043.65	23.6898	564.692
2	794330	1947.97	734.486	2081.84	20.6591	566.898
3	630960	2055.14	663.497	2159.59	17.8926	569.094
4	501190	2161.05	594.478	2241.33	15.3809	571.41
5	398110	2246.26	516.648	2304.91	12.953	573.561
6	316230	2326.55	458.799	2371.36	11.1557	575.747
7	251190	2350.24	374.205	2379.84	9.04671	577.813
8	199530	2414.44	332.968	2437.29	7.85196	580.034
9	158490	2464.83	293.113	2482.2	6.78165	582.49
10	125890	2502.7	256.922	2515.85	5.86133	586.322
11	100000	2533.11	224.337	2543.02	5.06103	588.498
12	79433	2556.62	195.518	2564.09	4.37319	590.694
13	63096	2576.6	171.905	2582.33	3.817	592.995
14	50119	2594.88	151.411	2599.3	3.33941	595.071
15	39811	2608.4	134.072	2611.84	2.94241	597.142
16	31623	2621.84	119.401	2624.56	2.6075	599.529
17	25119	2631.66	108.418	2633.89	2.35912	601.625
18	19953	2641.56	99.4774	2643.43	2.15666	603.821
19	15849	2652.59	92.4042	2654.2	1.99512	605.902
20	12589	2661.68	86.9854	2663.1	1.8718	607.928
21	10000	2670.75	83.0834	2672.05	1.78182	610.179
22	7943.3	2680.3	80.2338	2681.5	1.71462	612.275
23	6309.6	2690.71	78.5395	2691.86	1.67194	614.351
24	5011.9	2699.54	77.2575	2700.64	1.63929	616.477
25	3981.1	2709.8	76.8896	2710.9	1.62531	618.538
26	3162.3	2719	77.1002	2720.09	1.62425	620.684
27	2511.9	2728.52	77.8451	2729.63	1.63422	623.245
28	1995.3	2738.99	78.9434	2740.13	1.65093	625.466
29	1584.9	2750.73	80.6271	2751.91	1.67893	627.452
30	1258.9	2761.56	82.7189	2762.8	1.71571	629.503
31	1000	2772.67	85.452	2773.99	1.76526	631.614
32	794.33	2782.98	88.581	2784.39	1.82309	633.735
33	630.96	2794.86	92.5623	2796.39	1.89687	635.801
34	501.19	2807.42	97.3515	2809.11	1.98602	637.912
35	398.11	2819.77	102.886	2821.65	2.08965	639.988
36	316.23	2832.55	109.494	2834.67	2.21369	642.069
37	251.19	2847.67	117.237	2850.09	2.35751	644.25
38	199.53	2862.01	125.929	2864.78	2.51941	646.366
39	158.49	2878.48	136.018	2881.69	2.7054	648.647
40	125.89	2895.44	147.042	2899.18	2.90721	650.868
41	100	2914.94	159.775	2919.31	3.13739	652.869
42	79.433	2933.79	173.805	2938.93	3.39039	654.971
43	63.096	2958.01	189.502	2964.07	3.66558	657.162
44	50.119	2984.05	206.818	2991.2	3.96472	659.228
45	39.811	3010.39	225.204	3018.8	4.27827	669.044
46	31.623	3040.02	245.85	3049.95	4.62352	671.395
47	25.119	3073.79	267.783	3085.44	4.97894	673.701
48	19.953	3108.75	293.109	3122.54	5.38622	676.322
49	15.849	3147.7	319.85	3163.91	5.80213	678.938
50	12.589	3186.99	349.138	3206.05	6.25189	682.004
51	10	3230.17	381.694	3252.65	6.73911	685.015
52	7.9433	3278.23	418.709	3304.86	7.27865	688.071
53	6.3096	3328	460.695	3359.74	7.88137	691.182
54	5.0119	3378.51	508.719	3416.6	8.56296	694.338
55	3.9811	3434.19	564.695	3480.31	9.33777	697.514
56	3.1623	3493.34	631.758	3550.01	10.2509	700.74
57	2.5119	3555.09	710.366	3625.36	11.2998	704.226
58	1.9953	3621.81	804.308	3710.04	12.5207	707.718
59	1.5849	3699.66	916.568	3811.5	13.9145	711.219
60	1.2589	3775.5	1048.59	3918.41	15.5218	715.045
61	1	3860.74	1214.35	4047.21	17.4604	719.541
62	0.79433	3968.38	1404.17	4209.48	19.4858	723.752
63	0.63096	4069.48	1642.89	4388.59	21.9844	727.938
64	0.50119	4194.54	1917.92	4612.22	24.5719	732.434
65	0.39811	4323.66	2260.9	4879.1	27.6057	737.385
66	0.31623	4496.48	2701.66	5245.7	30.9991	743.011
67	0.25119	4692.49	3195.96	5677.46	34.258	749.157
68	0.19953	4869.77	3815.59	6186.55	38.0796	756.083
69	0.15849	5118.02	4521.99	6829.54	41.462	764.06
70	0.12589	5397.77	5422.47	7651.09	45.1308	773.256
71	0.1	5787.15	6542.56	8734.77	48.506	784.152