File: data/20200504/Z_p48_2.txt
Index	Frequency (Hz)	Z' (Ω)	-Z'' (Ω)	Z (Ω)	-Phase (°)	Time (s)
1	1000000	1206.11	533.269	1318.74	23.852	332.028
2	794330	1264.67	494.061	1357.75	21.3388	333.338
3	630960	1339.29	456.285	1414.88	18.8136	334.728
4	501190	1409.91	419.42	1470.97	16.5667	336.203
5	398110	1464.98	370.5	1511.1	14.1928	337.668
6	316230	1525.72	333.798	1561.81	12.3407	338.983
7	251190	1574.17	297.172	1601.97	10.6905	340.238
8	199530	1614.3	263.181	1635.61	9.25957	341.618
9	158490	1645.17	230.892	1661.29	7.989	345.498
10	125890	1672.89	203.603	1685.24	6.93918	346.693
11	100000	1690.47	175.892	1699.59	5.94021	348.073
12	79433	1709.77	155.873	1716.87	5.20902	349.338
13	63096	1727.31	138.415	1732.85	4.58152	350.773
14	50119	1741.21	123.577	1745.59	4.05958	352.188
15	39811	1754.48	111.007	1757.99	3.62031	353.498
16	31623	1765.63	100.494	1768.48	3.2576	354.758
17	25119	1774.99	92.4411	1777.39	2.98126	356.058
18	19953	1783.9	86.1241	1785.98	2.76401	357.413
19	15849	1793.41	81.3359	1795.26	2.59673	358.688
20	12589	1802.18	77.8922	1803.86	2.47484	359.958
21	10000	1810.49	75.5427	1812.06	2.38928	361.268
22	7943.3	1819.5	74.4606	1821.03	2.34344	362.588
23	6309.6	1827.85	74.1867	1829.35	2.32418	363.923
24	5011.9	1835.85	74.808	1837.37	2.33342	365.218
25	3981.1	1845.25	76.4181	1846.83	2.37146	366.493
26	3162.3	1855.09	78.6806	1856.75	2.42866	367.783
27	2511.9	1865.14	81.8643	1866.94	2.5132	369.153
28	1995.3	1874.93	85.718	1876.88	2.61763	370.398
29	1584.9	1885.39	90.7203	1887.58	2.7548	371.683
30	1258.9	1896.04	96.6568	1898.5	2.91831	373.043
31	1000	1907.59	103.607	1910.4	3.10885	374.384
32	794.33	1921.15	111.897	1924.41	3.33341	375.819
33	630.96	1935.51	121.534	1939.32	3.593	377.124
34	501.19	1950.48	132.726	1954.99	3.89286	378.414
35	398.11	1967.39	145.51	1972.77	4.22996	379.689
36	316.23	1985.03	159.934	1991.46	4.60638	381.014
37	251.19	2004.78	176.659	2012.55	5.03583	382.369
38	199.53	2027.7	195.274	2037.08	5.50081	383.649
39	158.49	2050.97	215.964	2062.31	6.011	384.964
40	125.89	2078.78	239.127	2092.49	6.56203	386.454
41	100	2108.27	264.657	2124.81	7.15509	387.864
42	79.433	2141.52	293.192	2161.49	7.79581	389.304
43	63.096	2178.93	324.823	2203.01	8.47889	390.739
44	50.119	2220.94	360.313	2249.97	9.21508	392.164
45	39.811	2267.76	399.75	2302.73	9.99711	401.279
46	31.623	2319.19	443.534	2361.22	10.8268	402.979
47	25.119	2375.56	492.459	2426.07	11.7116	404.704
48	19.953	2439.05	547.835	2499.82	12.6591	406.674
49	15.849	2507.69	607.465	2580.22	13.6171	408.559
50	12.589	2582.58	675.548	2669.47	14.6589	410.534
51	10	2668.24	750.736	2771.84	15.7145	412.894
52	7.9433	2763.87	834.006	2886.96	16.7913	415.159
53	6.3096	2867.83	926.212	3013.69	17.8987	418.534
54	5.0119	2979.72	1028.2	3152.13	19.0378	420.784
55	3.9811	3105.52	1144.11	3309.57	20.2244	423.259
56	3.1623	3245.17	1274.16	3486.35	21.4367	425.759
57	2.5119	3395.97	1419.9	3680.86	22.6905	428.295
58	1.9953	3560.68	1586.13	3897.98	24.011	431.01
59	1.5849	3737.38	1772.93	4136.58	25.3787	436.555
60	1.2589	3931.1	1989.37	4405.81	26.8421	439.43
61	1	4140.75	2241.34	4708.44	28.4262	444.465
62	0.79433	4377.99	2536.25	5059.58	30.0845	447.56
63	0.63096	4637.32	2879.23	5458.45	31.8355	451.055
64	0.50119	4910.48	3278.15	5904.16	33.7264	454.895
65	0.39811	5229.36	3761.61	6441.73	35.7284	459.13
66	0.31623	5559.26	4335.85	7050.18	37.9518	463.89
67	0.25119	5991.12	5032.88	7824.54	40.0322	469.45
68	0.19953	6442.67	5851.26	8703.17	42.2459	475.695
69	0.15849	6977.06	6791.07	9736.43	44.2261	483.061
70	0.12589	7545.38	7861.85	10896.9	46.1767	491.646
71	0.1	8203.64	9299.26	12400.6	48.5819	501.841