File: data/20200504/Z_p41_1.txt
Index	Frequency (Hz)	Z' (Ω)	-Z'' (Ω)	Z (Ω)	-Phase (°)	Time (s)
1	1000000	1536.58	642.059	1665.32	22.6776	33.7654
2	794330	1600.34	580.636	1702.42	19.9418	35.4454
3	630960	1683.89	526.914	1764.4	17.3757	36.8204
4	501190	1764.31	474.337	1826.96	15.0482	38.2705
5	398110	1827.73	409.089	1872.95	12.6162	39.8055
6	316230	1892.31	363.028	1926.82	10.8599	41.2805
7	251190	1910.57	296.252	1933.41	8.81406	42.6556
8	199530	1962.27	263.986	1979.95	7.66203	44.0706
9	158490	1999.9	232.178	2013.34	6.62209	46.3906
10	125890	2030.07	203.485	2040.25	5.72392	47.6957
11	100000	2054.17	178.003	2061.87	4.95255	49.0557
12	79433	2074.21	156.157	2080.08	4.3054	50.4357
13	63096	2089.82	137.387	2094.33	3.76127	51.8457
14	50119	2103.18	121.721	2106.7	3.31228	53.3258
15	39811	2114.28	108.688	2117.07	2.94279	54.7558
16	31623	2124.11	97.9692	2126.36	2.64076	56.1758
17	25119	2133.85	90.1309	2135.75	2.41866	57.5008
18	19953	2142.18	83.8921	2143.82	2.24267	58.8659
19	15849	2150.76	79.3836	2152.23	2.1138	60.1459
20	12589	2158.65	76.0576	2159.99	2.01792	61.4409
21	10000	2167.11	74.2076	2168.38	1.96119	62.9059
22	7943.3	2176.52	73.3921	2177.76	1.93127	64.316
23	6309.6	2184.81	73.3143	2186.04	1.92191	65.666
24	5011.9	2193.13	73.9271	2194.38	1.93062	68.001
25	3981.1	2202.51	75.2214	2203.8	1.95604	69.3261
26	3162.3	2212.33	77.3306	2213.68	2.00193	70.7211
27	2511.9	2221.73	79.9441	2223.17	2.06077	72.0911
28	1995.3	2231.89	83.2759	2233.44	2.13682	73.4111
29	1584.9	2243.01	87.2938	2244.7	2.22873	74.6761
30	1258.9	2254.13	92.3107	2256.02	2.34505	76.0162
31	1000	2265.86	97.6208	2267.96	2.46697	77.4362
32	794.33	2278.55	104.21	2280.93	2.61861	78.9362
33	630.96	2292.69	111.836	2295.41	2.79264	80.3563
34	501.19	2306.51	120.693	2309.67	2.9954	81.8463
35	398.11	2321.85	130.809	2325.54	3.22453	83.1863
36	316.23	2337.87	142.56	2342.21	3.48949	84.4063
37	251.19	2355.4	155.699	2360.54	3.78192	85.7764
38	199.53	2374.62	170.898	2380.77	4.11639	87.0114
39	158.49	2397.73	187.605	2405.06	4.47387	88.3714
40	125.89	2420.98	206.433	2429.77	4.87372	89.7264
41	100	2447.72	227.457	2458.26	5.30902	91.1215
42	79.433	2476.73	250.912	2489.41	5.78477	92.6015
43	63.096	2507.93	276.289	2523.1	6.28671	94.1815
44	50.119	2546.32	305.093	2564.53	6.83246	104.082
45	39.811	2585.54	335.947	2607.27	7.40314	113.107
46	31.623	2628.87	370.921	2654.91	8.03115	115.922
47	25.119	2677.33	409.491	2708.47	8.69585	117.562
48	19.953	2728.14	452.686	2765.44	9.42138	119.522
49	15.849	2788.4	500.687	2833	10.1796	121.532
50	12.589	2850.83	554.643	2904.29	11.0096	123.492
51	10	2918.08	614.515	2982.08	11.8921	125.812
52	7.9433	2993.88	680.312	3070.2	12.8022	128.162
53	6.3096	3079.98	756.941	3171.63	13.8075	130.517
54	5.0119	3171.18	840.836	3280.76	14.8502	132.952
55	3.9811	3273.67	934.007	3404.3	15.9239	135.457
56	3.1623	3385.39	1040.71	3541.74	17.0881	138.452
57	2.5119	3505.77	1161.27	3693.09	18.3272	141.157
58	1.9953	3635.55	1294.47	3859.13	19.5988	147.157
59	1.5849	3779.63	1449.8	4048.15	20.9859	149.958
60	1.2589	3932.66	1626.34	4255.68	22.4674	153.388
61	1	4098.66	1837.03	4491.51	24.1421	157.128
62	0.79433	4287.01	2081.38	4765.56	25.8969	160.503
63	0.63096	4476.77	2361.28	5061.33	27.8095	164.158
64	0.50119	4678.23	2717.14	5410.05	30.1482	167.963
65	0.39811	4902.04	3121.52	5811.53	32.4882	172.293
66	0.31623	5158.6	3648.95	6318.7	35.2738	177.053
67	0.25119	5463.12	4225.22	6906.39	37.7187	182.558
68	0.19953	5808.58	4952.39	7633.2	40.4509	188.838
69	0.15849	6172.57	5812.73	8478.71	43.2803	196.133
70	0.12589	6559.79	6910.96	9528.49	46.4933	204.649
71	0.1	7151.09	8170.45	10857.9	48.8063	214.799