File: data/20200504/Z_p47_3.txt
Index	Frequency (Hz)	Z' (Ω)	-Z'' (Ω)	Z (Ω)	-Phase (°)	Time (s)
1	1000000	1306.94	523.6	1407.93	21.8325	688.644
2	794330	1357.17	475.268	1437.98	19.2998	690.694
3	630960	1425.19	431.311	1489.02	16.8376	692.809
4	501190	1490.36	387.879	1540.01	14.5881	695.019
5	398110	1537.52	335.89	1573.78	12.3234	697.099
6	316230	1589.88	297.646	1617.51	10.6037	699.184
7	251190	1630.94	260.569	1651.62	9.07722	701.239
8	199530	1663.2	226.776	1678.59	7.76437	703.329
9	158490	1678.35	189.323	1689	6.43593	705.414
10	125890	1703.13	165.422	1711.14	5.54762	707.445
11	100000	1722.49	144.181	1728.51	4.78479	709.54
12	79433	1739.03	126.068	1743.59	4.1463	711.52
13	63096	1751.21	110.312	1754.68	3.60441	713.655
14	50119	1762.35	97.0901	1765.02	3.15331	715.73
15	39811	1771.08	85.8733	1773.16	2.77589	717.815
16	31623	1779.12	76.5674	1780.77	2.4643	719.85
17	25119	1785.92	69.4306	1787.27	2.22635	721.85
18	19953	1791.91	63.7748	1793.04	2.03832	723.845
19	15849	1799.36	59.3233	1800.34	1.88831	725.93
20	12589	1805.48	55.8971	1806.34	1.7733	727.965
21	10000	1811.42	53.4353	1812.21	1.68969	729.94
22	7943.3	1817.13	51.7108	1817.86	1.63005	731.94
23	6309.6	1823.47	50.6143	1824.17	1.58996	733.995
24	5011.9	1829.84	49.8921	1830.52	1.56183	736.055
25	3981.1	1835.35	49.6644	1836.02	1.55004	738.065
26	3162.3	1842.2	49.7102	1842.87	1.5457	740.08
27	2511.9	1848.88	50.1276	1849.56	1.55305	742.085
28	1995.3	1856.31	50.8212	1857.01	1.56822	744.115
29	1584.9	1862.68	51.6911	1863.39	1.58961	746.075
30	1258.9	1869.19	52.9572	1869.94	1.62285	748.105
31	1000	1877.36	54.1892	1878.15	1.65335	750.125
32	794.33	1884.2	55.7721	1885.02	1.69546	752.235
33	630.96	1892.43	57.7101	1893.31	1.7467	754.3
34	501.19	1900.69	60.0782	1901.64	1.81043	756.32
35	398.11	1908.29	62.6645	1909.32	1.8808	758.28
36	316.23	1917.15	65.806	1918.28	1.9659	760.405
37	251.19	1926.68	69.3547	1927.92	2.06159	762.426
38	199.53	1935.82	73.1636	1937.21	2.16444	764.456
39	158.49	1945.18	77.4951	1946.73	2.28143	766.556
40	125.89	1954.65	82.3184	1956.38	2.41154	768.711
41	100	1965.72	87.5727	1967.67	2.55083	770.771
42	79.433	1977.37	93.4268	1979.57	2.7051	772.936
43	63.096	1990.03	99.9907	1992.54	2.87646	775.161
44	50.119	2003.85	106.715	2006.69	3.0484	786.421
45	39.811	2018.7	115.066	2021.98	3.26233	796.136
46	31.623	2033.15	123.871	2036.92	3.48648	798.491
47	25.119	2051.41	133.581	2055.75	3.72565	800.801
48	19.953	2069.18	145.472	2074.29	4.02151	803.396
49	15.849	2085.28	158.305	2091.28	4.34131	806.046
50	12.589	2103.39	172.102	2110.42	4.67759	808.781
51	10	2124.36	189.171	2132.77	5.08867	811.791
52	7.9433	2144.93	209.039	2155.09	5.56633	814.732
53	6.3096	2167.34	231.641	2179.68	6.10051	817.807
54	5.0119	2189.04	259.417	2204.35	6.75846	820.832
55	3.9811	2214.14	291.51	2233.25	7.50033	823.992
56	3.1623	2239.82	331.41	2264.2	8.41659	827.112
57	2.5119	2267.91	379.389	2299.42	9.49685	830.352
58	1.9953	2295.7	437.588	2337.04	10.7918	833.677
59	1.5849	2327.71	508.909	2382.69	12.3326	837.312
60	1.2589	2361.64	595.754	2435.63	14.1582	840.972
61	1	2395.74	701.826	2496.42	16.3278	844.902
62	0.79433	2444.72	831.233	2582.17	18.7787	848.782
63	0.63096	2489.4	980.451	2675.52	21.497	853.027
64	0.50119	2532.64	1182.72	2795.19	25.0322	857.532
65	0.39811	2596.96	1425.33	2962.39	28.76	862.412
66	0.31623	2648.96	1719.27	3157.98	32.9849	867.932
67	0.25119	2734.34	2093.32	3443.64	37.4364	874.038
68	0.19953	2827.93	2511.56	3782.21	41.6091	881.073
69	0.15849	2946.99	3070.7	4256.05	46.1777	889.048
70	0.12589	3062.44	3737.56	4831.96	50.6699	898.243
71	0.1	3161.83	4573.28	5559.86	55.3411	909.133