File: data/20200504/Z_p47_1.txt
Index	Frequency (Hz)	Z' (Ω)	-Z'' (Ω)	Z (Ω)	-Phase (°)	Time (s)
1	1000000	1304.37	521.692	1404.83	21.7993	85.6224
2	794330	1354.11	473.446	1434.49	19.2715	87.0324
3	630960	1421.17	429.022	1484.52	16.798	88.4224
4	501190	1485.7	386.068	1535.04	14.5665	89.9074
5	398110	1532.37	334.611	1568.47	12.3179	91.2925
6	316230	1585.46	296.303	1612.91	10.5858	92.6875
7	251190	1626.42	259.237	1646.95	9.05625	93.9425
8	199530	1658.91	225.599	1674.18	7.74429	95.2925
9	158490	1673.23	188.31	1683.8	6.42121	97.5576
10	125890	1698.58	164.372	1706.51	5.52734	98.7326
11	100000	1717.24	143.482	1723.23	4.77618	100.093
12	79433	1733.03	125.381	1737.56	4.13804	101.383
13	63096	1746.22	109.872	1749.68	3.60029	102.768
14	50119	1756.59	96.5908	1759.24	3.1474	104.158
15	39811	1765.61	85.4789	1767.68	2.7717	105.438
16	31623	1773.96	76.2569	1775.6	2.46145	106.688
17	25119	1780.99	69.1768	1782.33	2.22435	107.963
18	19953	1787.84	63.6056	1788.98	2.03753	109.248
19	15849	1793.79	59.1556	1794.76	1.88882	110.533
20	12589	1799.72	55.8163	1800.58	1.7764	111.788
21	10000	1804.72	53.2427	1805.5	1.68985	113.053
22	7943.3	1812.22	51.6725	1812.96	1.63325	114.348
23	6309.6	1818.07	50.5578	1818.78	1.59289	115.638
24	5011.9	1823.7	49.9037	1824.38	1.56745	116.913
25	3981.1	1830.26	49.6883	1830.94	1.55509	118.138
26	3162.3	1836.62	49.8312	1837.3	1.55417	119.378
27	2511.9	1842.84	50.1614	1843.52	1.55919	120.663
28	1995.3	1849.96	50.9841	1850.66	1.57865	121.968
29	1584.9	1856.86	51.8446	1857.58	1.59932	123.198
30	1258.9	1863.76	53.1025	1864.52	1.63204	124.473
31	1000	1871.93	54.5656	1872.73	1.66966	125.738
32	794.33	1878.49	56.2525	1879.33	1.71524	127.108
33	630.96	1885.98	58.2349	1886.88	1.76861	128.383
34	501.19	1894.94	60.5884	1895.91	1.83134	129.688
35	398.11	1902.59	63.3489	1903.65	1.90702	130.953
36	316.23	1911.77	66.4808	1912.92	1.99163	132.228
37	251.19	1921.11	70.0995	1922.39	2.08974	133.518
38	199.53	1929.45	74.1871	1930.87	2.20193	134.798
39	158.49	1939.56	78.6243	1941.15	2.32134	136.123
40	125.89	1949.4	83.4541	1951.19	2.45134	137.488
41	100	1961.14	89.039	1963.16	2.59954	138.828
42	79.433	1972.3	95.0367	1974.59	2.75871	140.198
43	63.096	1985.23	101.629	1987.83	2.93056	141.618
44	50.119	1999.87	109.372	2002.86	3.13036	151.509
45	39.811	2014.01	117.011	2017.4	3.32506	160.494
46	31.623	2030.05	125.59	2033.93	3.54012	162.094
47	25.119	2046.42	135.627	2050.91	3.79175	163.644
48	19.953	2064.34	147.58	2069.61	4.08913	165.514
49	15.849	2082.43	160.311	2088.59	4.40209	167.449
50	12.589	2100.84	175.227	2108.13	4.76789	169.474
51	10	2121.34	191.895	2130	5.16887	171.704
52	7.9433	2140.9	211.469	2151.32	5.64112	174.939
53	6.3096	2163.6	235.08	2176.34	6.20099	177.239
54	5.0119	2187.48	262.592	2203.18	6.84524	179.559
55	3.9811	2210.91	295.101	2230.52	7.60262	181.954
56	3.1623	2237.12	334.81	2262.03	8.51179	184.374
57	2.5119	2266.29	383.096	2298.44	9.59461	186.919
58	1.9953	2293.85	442.468	2336.13	10.9179	189.589
59	1.5849	2328.56	512.949	2384.38	12.4231	192.319
60	1.2589	2360.97	600.361	2436.11	14.2671	195.184
61	1	2398.44	706.409	2500.3	16.4112	198.374
62	0.79433	2445.09	838.048	2584.72	18.919	201.57
63	0.63096	2487.27	988.752	2676.59	21.6791	205.04
64	0.50119	2538.66	1192.25	2804.68	25.1564	208.785
65	0.39811	2590.87	1436.28	2962.35	29.0023	213.005
66	0.31623	2670.31	1733.88	3183.85	32.9964	217.75
67	0.25119	2728.04	2098.95	3442.07	37.5746	223.175
68	0.19953	2814.55	2541.85	3792.45	42.0854	229.335
69	0.15849	2917.15	3107.83	4262.43	46.8128	236.59
70	0.12589	3067.14	3794.99	4879.47	51.0546	245.145
71	0.1	3178.71	4596.44	5588.51	55.3338	255.321