File: data/20200504/Z_p45_1.txt
Index	Frequency (Hz)	Z' (Ω)	-Z'' (Ω)	Z (Ω)	-Phase (°)	Time (s)
1	1000000	1028.02	400.985	1103.45	21.3086	32.8344
2	794330	1067.32	368.037	1128.99	19.0254	34.2944
3	630960	1119.31	336.864	1168.9	16.7496	35.7044
4	501190	1169.71	306.314	1209.15	14.6746	37.1945
5	398110	1204.83	267.662	1234.2	12.5253	38.5845
6	316230	1248.02	238.672	1270.64	10.8265	40.0045
7	251190	1281.26	210.506	1298.43	9.33015	41.3145
8	199530	1309.11	184.755	1322.08	8.03312	42.7746
9	158490	1330.47	161.234	1340.21	6.90973	44.1346
10	125890	1347.49	140.672	1354.82	5.95982	45.5796
11	100000	1362.77	123.236	1368.33	5.16723	49.5297
12	79433	1374.73	108.117	1378.98	4.49683	50.7297
13	63096	1385.07	95.4193	1388.36	3.94095	52.1247
14	50119	1393.87	84.7056	1396.45	3.47758	53.4898
15	39811	1401.6	75.841	1403.65	3.09727	54.8098
16	31623	1408.31	68.6692	1409.98	2.79154	56.1498
17	25119	1414.63	63.1403	1416.04	2.55564	57.4748
18	19953	1421.5	59.033	1422.72	2.37806	58.7499
19	15849	1427.02	55.9931	1428.12	2.24701	60.2599
20	12589	1432.66	54.0052	1433.68	2.15878	61.5749
21	10000	1438.6	52.6004	1439.56	2.09401	62.9749
22	7943.3	1445.16	52.4424	1446.11	2.07825	64.325
23	6309.6	1450.56	52.7701	1451.52	2.08345	65.605
24	5011.9	1457.76	53.8103	1458.75	2.114	66.935
25	3981.1	1463.6	55.3367	1464.65	2.16524	68.245
26	3162.3	1470.33	57.5088	1471.45	2.23986	69.5651
27	2511.9	1477.69	60.2251	1478.92	2.33386	70.8551
28	1995.3	1485.48	63.4517	1486.83	2.44589	72.1501
29	1584.9	1493.04	67.4106	1494.56	2.58515	73.4251
30	1258.9	1501.97	72.1555	1503.7	2.7504	74.8152
31	1000	1511.24	77.3815	1513.22	2.93121	76.1002
32	794.33	1520.91	83.4038	1523.19	3.13886	77.5152
33	630.96	1531.89	90.4729	1534.55	3.37995	78.7802
34	501.19	1543.27	98.4667	1546.41	3.65074	80.0953
35	398.11	1555.55	107.59	1559.26	3.95659	81.4803
36	316.23	1569.69	117.843	1574.11	4.29338	82.7653
37	251.19	1583.98	129.372	1589.25	4.6693	84.0753
38	199.53	1601.05	142.074	1607.34	5.07102	85.3853
39	158.49	1619.57	156.452	1627.11	5.51771	86.7254
40	125.89	1639.26	172.003	1648.26	5.98998	88.1004
41	100	1661.48	189.346	1672.23	6.50153	89.3854
42	79.433	1686.87	208.475	1699.71	7.04527	90.7654
43	63.096	1713.61	229.283	1728.88	7.62099	92.2155
44	50.119	1743.82	252.106	1761.95	8.22632	102.001
45	39.811	1777	277.733	1798.57	8.88309	111.056
46	31.623	1813.28	305.53	1838.84	9.56426	112.681
47	25.119	1852.39	336.433	1882.69	10.2939	114.251
48	19.953	1895.5	371.471	1931.55	11.088	116.201
49	15.849	1943.21	410.295	1986.05	11.9225	118.101
50	12.589	1994.32	452.528	2045.02	12.7844	120.061
51	10	2050.54	500.479	2110.73	13.7161	122.336
52	7.9433	2112.33	554.316	2183.85	14.704	124.761
53	6.3096	2179.74	614.867	2264.8	15.7529	127.046
54	5.0119	2252.16	682.146	2353.2	16.8508	129.396
55	3.9811	2334.33	761.027	2455.25	18.0567	131.866
56	3.1623	2421.49	847.999	2565.68	19.3001	134.436
57	2.5119	2519.45	948.469	2692.07	20.6293	137.031
58	1.9953	2626.49	1064.43	2833.98	22.0611	139.591
59	1.5849	2743.07	1196.65	2992.73	23.569	142.376
60	1.2589	2869.39	1348.87	3170.62	25.1778	145.231
61	1	3000.5	1525.27	3365.92	26.9459	148.497
62	0.79433	3157.29	1730.76	3600.56	28.7306	151.677
63	0.63096	3319.67	1978.6	3864.59	30.7959	155.282
64	0.50119	3499.51	2268.81	4170.62	32.9562	159.197
65	0.39811	3686.66	2620.49	4523.1	35.4053	163.447
66	0.31623	3920.04	3044.42	4963.39	37.834	168.337
67	0.25119	4145.49	3530.23	5444.96	40.4172	173.867
68	0.19953	4430.41	4120.73	6050.53	42.9259	180.127
69	0.15849	4741.08	4847.53	6780.59	45.6361	187.462
70	0.12589	5131.52	5761.87	7715.68	48.3118	196.057
71	0.1	5580.28	6730.35	8742.83	50.3372	206.398