File: data/20200504/Z_p44_2.txt
Index	Frequency (Hz)	Z' (Ω)	-Z'' (Ω)	Z (Ω)	-Phase (°)	Time (s)
1	1000000	2044.97	1059.32	2303.05	27.3846	214.419
2	794330	2163.85	958.774	2366.74	23.8975	215.719
3	630960	2319.57	877.872	2480.13	20.7298	217.079
4	501190	2463.05	799.392	2589.53	17.981	218.569
5	398110	2590.86	718.724	2688.7	15.5044	219.974
6	316230	2708.66	650.031	2785.56	13.4948	221.379
7	251190	2758.27	547.86	2812.15	11.2341	222.694
8	199530	2852.41	497.038	2895.39	9.88466	224.059
9	158490	2926.13	444.827	2959.75	8.64386	225.409
10	125890	2986.57	396.802	3012.82	7.56811	226.689
11	100000	3037.03	352.02	3057.36	6.61161	228.154
12	79433	3078.31	312.563	3094.13	5.7978	229.459
13	63096	3113.23	277.701	3125.59	5.0973	230.839
14	50119	3145.2	247.471	3154.92	4.49888	232.189
15	39811	3170.28	221.35	3178	3.99393	233.579
16	31623	3193.45	199.035	3199.65	3.5664	234.889
17	25119	3214.91	180.921	3220	3.22095	236.189
18	19953	3231.61	165.511	3235.85	2.93192	237.469
19	15849	3249.18	153.173	3252.79	2.69905	238.749
20	12589	3266.43	143.495	3269.58	2.5154	240.089
21	10000	3281.49	135.797	3284.3	2.3697	241.359
22	7943.3	3297.47	129.953	3300.03	2.25686	242.619
23	6309.6	3312.1	125.472	3314.47	2.1695	243.904
24	5011.9	3327.66	122.445	3329.91	2.10732	245.259
25	3981.1	3343.34	120.306	3345.5	2.06082	246.514
26	3162.3	3360.23	119.128	3362.34	2.03042	247.749
27	2511.9	3375.9	118.557	3377.98	2.01133	249.044
28	1995.3	3388.93	118.301	3390.99	1.99927	250.374
29	1584.9	3405.25	119.011	3407.33	2.00163	251.604
30	1258.9	3422.01	120.577	3424.14	2.01802	252.839
31	1000	3438.24	121.952	3440.41	2.03139	254.139
32	794.33	3455.93	124.43	3458.17	2.06203	255.554
33	630.96	3472.64	127.597	3474.98	2.1043	256.824
34	501.19	3489.25	131.251	3491.72	2.1542	258.109
35	398.11	3508.65	135.975	3511.28	2.21934	259.419
36	316.23	3524.69	141.51	3527.53	2.29909	260.744
37	251.19	3544.56	148.068	3547.65	2.39205	262.034
38	199.53	3561.78	155.775	3565.18	2.50424	263.334
39	158.49	3585.12	164.586	3588.89	2.62849	264.679
40	125.89	3604.16	174.713	3608.39	2.77526	266.024
41	100	3628.2	186.494	3632.99	2.94248	267.374
42	79.433	3652.45	199.222	3657.88	3.1221	268.755
43	63.096	3678.28	213.605	3684.48	3.32354	270.2
44	50.119	3708.01	229.936	3715.13	3.5484	271.62
45	39.811	3740.39	246.961	3748.54	3.7775	280.725
46	31.623	3774.9	265.494	3784.23	4.02306	282.33
47	25.119	3812.06	285.033	3822.7	4.27613	283.985
48	19.953	3851.02	307.891	3863.3	4.57111	285.905
49	15.849	3894.54	331.284	3908.61	4.86208	287.865
50	12.589	3937.36	355.807	3953.4	5.16361	289.87
51	10	3986.37	382.438	4004.67	5.47998	292.135
52	7.9433	4036.87	410.445	4057.69	5.80554	294.445
53	6.3096	4092.01	442.87	4115.9	6.17697	296.72
54	5.0119	4148.63	478.534	4176.14	6.57984	299.115
55	3.9811	4208.03	519.443	4239.97	7.03705	301.6
56	3.1623	4269.85	564.081	4306.95	7.52565	304.075
57	2.5119	4337.12	618.625	4381.02	8.11763	306.645
58	1.9953	4407.99	680.326	4460.18	8.77376	309.215
59	1.5849	4482.03	753.318	4544.9	9.54082	311.98
60	1.2589	4561.41	837.37	4637.63	10.4024	314.795
61	1	4647.02	941.844	4741.51	11.4573	317.965
62	0.79433	4740.39	1058.84	4857.21	12.5912	321.22
63	0.63096	4843.53	1200.81	4990.16	13.9241	324.751
64	0.50119	4944.18	1368.96	5130.2	15.4765	328.556
65	0.39811	5067.3	1576.78	5306.96	17.2844	332.756
66	0.31623	5193.19	1846.59	5511.73	19.5743	337.461
67	0.25119	5371.77	2125.46	5776.98	21.5873	342.851
68	0.19953	5559.87	2478.25	6087.19	24.0244	348.991
69	0.15849	5754.73	2892.54	6440.78	26.6858	356.256
70	0.12589	5976.37	3449.76	6900.57	29.995	364.816
71	0.1	6325.03	4016.84	7492.72	32.4184	374.896