File: data/20200504/Z_p48_3.txt
Index	Frequency (Hz)	Z' (Ω)	-Z'' (Ω)	Z (Ω)	-Phase (°)	Time (s)
1	1000000	1208.01	535.298	1321.3	23.8993	558.974
2	794330	1266.4	495.312	1359.82	21.3613	561.27
3	630960	1339.81	458.413	1416.07	18.8882	563.441
4	501190	1412.15	422.177	1473.91	16.6445	565.667
5	398110	1467.25	371.507	1513.55	14.2087	567.763
6	316230	1528.61	334.81	1564.85	12.3543	569.954
7	251190	1576.95	297.92	1604.85	10.6983	572.045
8	199530	1616.41	263.765	1637.79	9.26783	574.341
9	158490	1637.45	224.305	1652.74	7.80008	578.253
10	125890	1667.9	199.28	1679.76	6.81337	580.289
11	100000	1692.62	176.324	1701.77	5.94719	582.475
12	79433	1712.32	156.19	1719.42	5.21183	584.646
13	63096	1730.18	138.838	1735.74	4.58785	586.932
14	50119	1745.29	124.056	1749.7	4.06576	589.153
15	39811	1758.11	111.443	1761.64	3.62702	591.274
16	31623	1768.28	100.822	1771.15	3.2633	593.27
17	25119	1778.21	92.8908	1780.64	2.99031	595.301
18	19953	1787.93	86.3263	1790.02	2.76425	597.502
19	15849	1797.2	81.4468	1799.05	2.59479	599.754
20	12589	1805.49	77.9762	1807.17	2.47298	601.91
21	10000	1813.91	75.7449	1815.49	2.39116	603.996
22	7943.3	1822.87	74.6557	1824.39	2.34525	606.067
23	6309.6	1831.76	74.4155	1833.28	2.32636	608.258
24	5011.9	1840.02	75.1212	1841.55	2.33788	610.424
25	3981.1	1848.79	76.5704	1850.38	2.37163	612.515
26	3162.3	1858.4	78.8494	1860.07	2.42953	614.556
27	2511.9	1868.46	81.9953	1870.26	2.51274	616.722
28	1995.3	1878.03	85.9433	1880	2.62016	618.898
29	1584.9	1889.29	90.8287	1891.48	2.7524	621.034
30	1258.9	1900.93	96.8378	1903.39	2.91626	623.08
31	1000	1913.08	103.888	1915.9	3.10834	625.171
32	794.33	1925.51	112.055	1928.77	3.33056	627.497
33	630.96	1939.61	121.664	1943.42	3.58925	629.628
34	501.19	1954.06	132.693	1958.56	3.8848	631.709
35	398.11	1971.23	145.616	1976.6	4.2248	633.75
36	316.23	1989.08	160.162	1995.52	4.60356	635.846
37	251.19	2009.79	176.874	2017.56	5.02941	637.942
38	199.53	2031.65	195.363	2041.02	5.49265	640.083
39	158.49	2055.22	216.38	2066.58	6.01014	642.434
40	125.89	2083.89	239.816	2097.65	6.56475	644.58
41	100	2113.29	265.341	2129.89	7.1565	646.686
42	79.433	2147.29	294.004	2167.32	7.79638	648.897
43	63.096	2184.66	325.906	2208.83	8.48478	651.508
44	50.119	2226.3	361.074	2255.39	9.21233	663.041
45	39.811	2273.37	400.639	2308.4	9.99469	673.017
46	31.623	2324.04	444.648	2366.19	10.8313	675.243
47	25.119	2380.08	493.266	2430.65	11.7087	677.754
48	19.953	2444.97	548.583	2505.76	12.6461	680.26
49	15.849	2512.86	608.766	2585.55	13.6181	682.976
50	12.589	2588.63	676.895	2675.67	14.654	685.797
51	10	2675.05	752.24	2778.81	15.7063	688.948
52	7.9433	2767.44	835.018	2890.67	16.7901	691.924
53	6.3096	2872.76	927.844	3018.88	17.8994	694.94
54	5.0119	2986.65	1030.38	3159.39	19.0342	698.111
55	3.9811	3115.97	1146.95	3320.35	20.208	701.242
56	3.1623	3254.76	1277.13	3496.36	21.4245	704.423
57	2.5119	3399.89	1421.44	3685.07	22.689	711.342
58	1.9953	3562.35	1586.74	3899.75	24.0091	714.563
59	1.5849	3743.92	1776.38	4143.97	25.383	718.159
60	1.2589	3936.13	1992.84	4411.86	26.8529	721.76
61	1	4149.85	2246.64	4718.96	28.4302	725.681
62	0.79433	4387.4	2542.55	5070.88	30.0928	729.662
63	0.63096	4646.73	2885.56	5469.79	31.8397	733.833
64	0.50119	4913.18	3291.52	5913.83	33.8195	738.264
65	0.39811	5229.69	3785.88	6456.2	35.9016	743.125
66	0.31623	5571.09	4352.18	7069.55	37.9973	748.586
67	0.25119	5981.53	5058.57	7833.76	40.2212	754.662
68	0.19953	6450.48	5812.62	8683.05	42.0225	761.749
69	0.15849	6991.82	6773.15	9734.53	44.0899	769.615
70	0.12589	7584.19	7881.91	10938.2	46.1028	778.931
71	0.1	8220.58	9200.38	12337.9	48.2191	790.302