File: data/20200504/Z_p44_1.txt
Index	Frequency (Hz)	Z' (Ω)	-Z'' (Ω)	Z (Ω)	-Phase (°)	Time (s)
1	1000000	2042.99	1061.39	2302.25	27.4531	21.0162
2	794330	2163.26	959.871	2366.65	23.9276	22.3712
3	630960	2317.58	880.587	2479.23	20.8048	23.7712
4	501190	2466.27	802.197	2593.46	18.018	25.2562
5	398110	2591.35	718.591	2689.14	15.4989	26.6513
6	316230	2709.51	651.554	2786.75	13.5212	28.0213
7	251190	2758.9	548.63	2812.92	11.247	29.3163
8	199530	2854.25	496.755	2897.16	9.87289	30.7163
9	158490	2928.47	444.401	2961.99	8.62891	32.0864
10	125890	2988.9	396.798	3015.13	7.5622	33.3464
11	100000	3038.79	352.303	3059.14	6.61308	34.7314
12	79433	3080.7	312.97	3096.56	5.80081	36.0364
13	63096	3116.99	278.263	3129.39	5.10144	37.4365
14	50119	3144.49	247.581	3154.22	4.50189	38.8765
15	39811	3172.31	221.435	3180.03	3.99292	40.1965
16	31623	3195.04	199.137	3201.24	3.56644	41.5015
17	25119	3215.11	180.672	3220.18	3.21633	42.7566
18	19953	3234.38	165.679	3238.62	2.93238	44.0416
19	15849	3250.87	153.377	3254.49	2.70122	45.3616
20	12589	3266.84	143.517	3269.99	2.51547	46.6866
21	10000	3281.64	135.696	3284.44	2.36783	47.9867
22	7943.3	3299.88	130.175	3302.44	2.25906	49.2967
23	6309.6	3313.61	125.726	3315.99	2.17289	50.5667
24	5011.9	3330.2	122.548	3332.45	2.10749	51.8467
25	3981.1	3345.17	120.274	3347.34	2.05915	53.1468
26	3162.3	3361.36	118.994	3363.46	2.02746	54.4218
27	2511.9	3374.96	118.406	3377.04	2.00932	55.7318
28	1995.3	3392.09	118.538	3394.16	2.00141	56.9918
29	1584.9	3407.87	119.104	3409.95	2.00166	58.2518
30	1258.9	3423.83	120.449	3425.95	2.0148	59.5419
31	1000	3439.92	121.973	3442.08	2.03076	60.8869
32	794.33	3456.67	124.241	3458.9	2.05846	62.2919
33	630.96	3473.44	127.245	3475.77	2.09801	63.5719
34	501.19	3491.26	131.216	3493.73	2.1524	64.872
35	398.11	3509.85	135.771	3512.47	2.21527	66.122
36	316.23	3527.77	141.195	3530.6	2.29198	67.382
37	251.19	3546.62	147.937	3549.7	2.38854	68.717
38	199.53	3564.28	155.575	3567.68	2.49928	70.0771
39	158.49	3583.78	164.18	3587.53	2.623	71.3321
40	125.89	3606.22	174.204	3610.43	2.76561	72.6921
41	100	3628.09	185.632	3632.84	2.92899	74.0371
42	79.433	3652.34	198.432	3657.72	3.10983	75.4322
43	63.096	3680.18	213.038	3686.34	3.31303	76.8572
44	50.119	3709.28	228.626	3716.32	3.52703	78.2622
45	39.811	3740.59	245.655	3748.65	3.75737	87.3324
46	31.623	3774.55	263.876	3783.77	3.999	89.2074
47	25.119	3811.03	283.516	3821.56	4.2546	90.8624
48	19.953	3850.68	306.21	3862.83	4.54666	92.7925
49	15.849	3891.51	328.597	3905.36	4.82658	94.7975
50	12.589	3937.27	352.874	3953.05	5.12139	96.8026
51	10	3987.12	379.888	4005.18	5.44264	99.0626
52	7.9433	4034.74	407.473	4055.26	5.76681	101.578
53	6.3096	4090.21	439.517	4113.75	6.13324	103.878
54	5.0119	4144.37	474.725	4171.47	6.53457	106.203
55	3.9811	4204.84	513.77	4236.11	6.96617	108.723
56	3.1623	4267.44	559.975	4304.02	7.47567	111.278
57	2.5119	4330.59	613.814	4373.87	8.06732	113.848
58	1.9953	4399.14	674.195	4450.51	8.71313	116.533
59	1.5849	4475.06	745.794	4536.78	9.4617	119.273
60	1.2589	4554.13	832.385	4629.58	10.3579	122.043
61	1	4636.75	933.729	4729.83	11.3857	125.348
62	0.79433	4735.44	1054.2	4851.36	12.5505	128.508
63	0.63096	4824.53	1196.06	4970.58	13.9236	131.958
64	0.50119	4939.7	1370.04	5126.18	15.5015	135.808
65	0.39811	5057.73	1585.38	5300.38	17.404	139.958
66	0.31623	5200.45	1820.96	5510.04	19.298	144.723
67	0.25119	5346.91	2147.6	5762.08	21.883	150.169
68	0.19953	5521.42	2502.89	6062.22	24.3851	156.374
69	0.15849	5746.46	2931.89	6451.18	27.0311	163.594
70	0.12589	6011	3387.24	6899.68	29.4015	172.119
71	0.1	6223.76	4033.42	7416.45	32.946	182.294