File: data/20200504/Z_p40_1.txt
Index	Frequency (Hz)	Z' (Ω)	-Z'' (Ω)	Z (Ω)	-Phase (°)	Time (s)
1	1000000	1393.52	576.787	1508.17	22.485	71.3101
2	794330	1449.96	521.763	1540.98	19.7911	72.6701
3	630960	1524.54	473.628	1596.42	17.2584	74.0751
4	501190	1596.19	428.403	1652.68	15.0236	75.6352
5	398110	1650.85	372.737	1692.41	12.7231	78.9202
6	316230	1710.09	331.054	1741.84	10.9563	80.2953
7	251190	1756.57	290.663	1780.45	9.39573	81.6053
8	199530	1774.27	240.703	1790.52	7.72576	84.0303
9	158490	1809.47	212.399	1821.89	6.69488	85.2603
10	125890	1837.59	186.424	1847.02	5.79287	86.5904
11	100000	1859.68	163.259	1866.83	5.01706	88.0054
12	79433	1877.56	143.561	1883.04	4.37239	89.3904
13	63096	1892.14	126.651	1896.37	3.82942	90.9005
14	50119	1905.02	112.515	1908.34	3.38009	92.3505
15	39811	1915.15	100.664	1917.79	3.00882	93.8005
16	31623	1925.33	91.0146	1927.48	2.70649	95.1005
17	25119	1933.5	83.9616	1935.32	2.48649	96.4306
18	19953	1942.64	78.3357	1944.21	2.30917	97.8756
19	15849	1950.27	74.201	1951.68	2.17885	99.2006
20	12589	1957.61	71.2774	1958.91	2.08524	100.521
21	10000	1965.21	69.5867	1966.45	2.02795	101.866
22	7943.3	1974.29	68.7811	1975.49	1.99528	103.576
23	6309.6	1981.76	68.8011	1982.95	1.98835	105.096
24	5011.9	1989.78	69.4664	1990.99	1.99947	106.651
25	3981.1	1999.4	70.8918	2000.65	2.03066	107.996
26	3162.3	2007.65	72.9088	2008.97	2.07981	109.281
27	2511.9	2016.24	75.5456	2017.66	2.14579	110.671
28	1995.3	2025.65	78.8167	2027.19	2.22821	112.021
29	1584.9	2036.8	82.796	2038.48	2.32779	113.241
30	1258.9	2046.62	87.7001	2048.5	2.45369	114.526
31	1000	2057.79	93.3314	2059.9	2.59688	116.286
32	794.33	2070.45	100.007	2072.86	2.76535	117.671
33	630.96	2082.48	107.749	2085.26	2.96187	119.006
34	501.19	2095.84	116.892	2099.1	3.19228	120.351
35	398.11	2109.99	127.309	2113.83	3.45282	121.676
36	316.23	2126.98	139.445	2131.55	3.75094	123.016
37	251.19	2143.61	153.142	2149.07	4.08633	124.331
38	199.53	2162.46	168.655	2169.02	4.45961	125.611
39	158.49	2183.64	186.057	2191.55	4.87011	126.991
40	125.89	2207.19	205.577	2216.75	5.32115	128.426
41	100	2232.57	227.424	2244.12	5.81647	129.906
42	79.433	2259.54	251.377	2273.48	6.34814	131.391
43	63.096	2291.99	278.53	2308.85	6.9288	132.871
44	50.119	2328.42	309.246	2348.86	7.5654	142.861
45	39.811	2367.66	342.644	2392.33	8.23459	151.957
46	31.623	2410.31	380.477	2440.16	8.97034	153.747
47	25.119	2456.77	422.869	2492.9	9.76628	155.497
48	19.953	2510.89	472.1	2554.89	10.6485	157.462
49	15.849	2567.71	525.109	2620.86	11.5579	159.517
50	12.589	2634.45	586.76	2699	12.5563	161.622
51	10	2704.35	653.514	2782.19	13.5853	164.087
52	7.9433	2784.03	728.574	2877.78	14.6653	166.537
53	6.3096	2873.2	812.487	2985.87	15.7899	169.022
54	5.0119	2969.59	908.287	3105.39	17.0069	171.667
55	3.9811	3078.77	1016.3	3242.17	18.268	174.152
56	3.1623	3195.38	1136.39	3391.43	19.5772	176.832
57	2.5119	3324.09	1273.66	3559.74	20.9648	179.432
58	1.9953	3463.82	1433.65	3748.79	22.4843	182.057
59	1.5849	3613.43	1613.91	3957.48	24.0676	187.847
60	1.2589	3776.79	1823.79	4194.09	25.7756	190.697
61	1	3961.76	2074.05	4471.83	27.6328	195.927
62	0.79433	4162.36	2368.42	4789.01	29.6403	199.097
63	0.63096	4388.81	2709.48	5157.81	31.6895	202.748
64	0.50119	4629.2	3115.78	5580.11	33.9434	206.748
65	0.39811	4889.71	3617.78	6082.57	36.4968	211.073
66	0.31623	5199.9	4197.44	6682.62	38.911	215.878
67	0.25119	5513.05	4919.85	7389.09	41.7458	221.433
68	0.19953	5893.48	5758.58	8239.8	44.3367	227.618
69	0.15849	6333.05	6790.67	9285.51	46.997	234.988
70	0.12589	6905.58	8022.18	10585	49.2778	243.663
71	0.1	7451.84	9410.3	12003.5	51.6249	253.923