File: data/20200504/Z_p49_2.txt
Index	Frequency (Hz)	Z' (Ω)	-Z'' (Ω)	Z (Ω)	-Phase (°)	Time (s)
1	1000000	1224.27	548.176	1341.4	24.1208	333.715
2	794330	1285.14	511.263	1383.1	21.694	335.125
3	630960	1361.03	475.737	1441.78	19.2666	336.57
4	501190	1437.68	439.852	1503.46	17.0112	338.13
5	398110	1495.72	395.481	1547.12	14.8105	339.655
6	316230	1561.28	361.092	1602.49	13.0224	341.07
7	251190	1613.91	326.549	1646.61	11.4385	342.37
8	199530	1659.24	294.365	1685.15	10.0602	343.78
9	158490	1685.51	256.497	1704.92	8.65273	345.19
10	125890	1720.7	232.652	1736.36	7.70014	346.455
11	100000	1750.06	210.872	1762.72	6.87068	347.855
12	79433	1776.14	192.062	1786.49	6.17169	349.165
13	63096	1799	175.979	1807.59	5.58692	350.645
14	50119	1818.45	162.274	1825.68	5.09943	352.025
15	39811	1836.86	151.151	1843.06	4.70416	353.415
16	31623	1853.55	142.303	1859	4.39018	354.79
17	25119	1868.83	136.363	1873.79	4.17331	356.12
18	19953	1883.84	132.136	1888.47	4.01227	357.57
19	15849	1899.49	129.827	1903.92	3.90999	358.84
20	12589	1914.6	129.179	1918.95	3.85992	360.145
21	10000	1930.03	130.027	1934.41	3.8542	361.52
22	7943.3	1946	132.235	1950.49	3.8874	362.945
23	6309.6	1964.1	135.621	1968.78	3.95001	364.245
24	5011.9	1982.02	140.277	1986.98	4.04834	365.535
25	3981.1	2000.01	145.524	2005.29	4.1616	366.835
26	3162.3	2019.22	151.826	2024.92	4.3	368.195
27	2511.9	2040.88	158.934	2047.06	4.45292	369.6
28	1995.3	2062.4	166.673	2069.12	4.62032	370.95
29	1584.9	2086.31	175.287	2093.66	4.80258	372.2
30	1258.9	2110.83	184.313	2118.86	4.99029	373.586
31	1000	2136.92	194.41	2145.74	5.19826	374.871
32	794.33	2165.54	204.915	2175.22	5.40553	376.191
33	630.96	2195.66	216.182	2206.27	5.62315	377.486
34	501.19	2226.44	227.864	2238.07	5.84356	378.896
35	398.11	2259.06	240.295	2271.8	6.0717	380.196
36	316.23	2294.91	253.322	2308.85	6.29906	381.501
37	251.19	2332.51	266.685	2347.71	6.52254	382.851
38	199.53	2371.71	280.413	2388.23	6.74293	384.166
39	158.49	2413.51	294.486	2431.41	6.95662	385.516
40	125.89	2456.29	308.107	2475.54	7.14959	386.866
41	100	2502.57	321.852	2523.18	7.3285	388.211
42	79.433	2549.75	335.531	2571.73	7.49671	389.616
43	63.096	2599.83	348.965	2623.15	7.64488	391.146
44	50.119	2651.08	363	2675.82	7.79676	392.651
45	39.811	2704.36	376.505	2730.44	7.92586	401.806
46	31.623	2758.83	390.672	2786.35	8.05996	403.441
47	25.119	2813.37	405.316	2842.42	8.19807	405.126
48	19.953	2870.51	423.488	2901.58	8.39234	407.021
49	15.849	2927.71	441.981	2960.88	8.58481	408.961
50	12.589	2984.9	463.016	3020.6	8.81742	410.901
51	10	3049.32	488.086	3088.14	9.09383	413.221
52	7.9433	3112.3	516.985	3154.95	9.43131	415.571
53	6.3096	3175.29	550.83	3222.71	9.84139	417.931
54	5.0119	3245.54	589.516	3298.65	10.2949	420.461
55	3.9811	3320.29	635.667	3380.59	10.8381	422.941
56	3.1623	3399.62	688.075	3468.55	11.442	425.486
57	2.5119	3487.05	750.11	3566.81	12.1401	428.077
58	1.9953	3578.57	820.067	3671.33	12.9071	430.782
59	1.5849	3681.37	897.614	3789.22	13.7028	433.532
60	1.2589	3792.28	989.375	3919.21	14.6221	436.402
61	1	3915.29	1089.72	4064.11	15.5531	439.632
62	0.79433	4053.72	1203.25	4228.53	16.5322	443.032
63	0.63096	4204.65	1328.35	4409.49	17.5326	446.512
64	0.50119	4365.54	1472.02	4607.03	18.6336	450.392
65	0.39811	4555.44	1633.3	4839.39	19.7247	454.702
66	0.31623	4752.05	1814.03	5086.52	20.8937	459.617
67	0.25119	4998.98	2031.21	5395.89	22.1131	465.097
68	0.19953	5251.78	2256.23	5715.93	23.2489	471.287
69	0.15849	5543.91	2493.94	6079.04	24.2207	478.537
70	0.12589	5829.3	2752.86	6446.62	25.2788	487.198
71	0.1	6177.79	3110.14	6916.51	26.7224	497.378