File: data/20200504/Z_p40_2.txt
Index	Frequency (Hz)	Z' (Ω)	-Z'' (Ω)	Z (Ω)	-Phase (°)	Time (s)
1	1000000	1392.31	576.617	1506.99	22.4966	348.194
2	794330	1450.48	521.717	1541.45	19.7829	349.649
3	630960	1525.17	475.156	1597.47	17.304	351.119
4	501190	1597.1	428.228	1653.51	15.0096	352.659
5	398110	1651.8	372.823	1693.35	12.719	354.099
6	316230	1710.98	331.103	1742.72	10.9523	355.559
7	251190	1757.27	290.692	1781.15	9.39293	356.954
8	199530	1774.67	240.883	1790.94	7.72973	358.424
9	158490	1811.13	212.575	1823.56	6.69425	359.854
10	125890	1837.85	186.398	1847.28	5.79123	361.189
11	100000	1860.41	163.473	1867.58	5.02164	362.669
12	79433	1878.15	143.707	1883.64	4.37546	364.069
13	63096	1893.34	126.614	1897.57	3.82588	365.724
14	50119	1906.31	112.618	1909.63	3.38092	367.184
15	39811	1916.3	100.71	1918.94	3.00838	368.669
16	31623	1925.37	90.9577	1927.51	2.70475	370.054
17	25119	1934.22	83.6925	1936.03	2.47761	371.409
18	19953	1942.81	78.3326	1944.39	2.30887	372.784
19	15849	1950.6	74.2608	1952.01	2.18024	374.149
20	12589	1958.02	71.3998	1959.32	2.08838	375.52
21	10000	1966.34	69.6511	1967.57	2.02867	377.02
22	7943.3	1974.29	68.8341	1975.49	1.99682	378.37
23	6309.6	1982.67	68.8508	1983.86	1.98887	379.935
24	5011.9	1991.06	69.6254	1992.28	2.00276	381.28
25	3981.1	1998.68	70.9348	1999.94	2.03262	382.645
26	3162.3	2008.82	72.9198	2010.15	2.07891	384.02
27	2511.9	2018.23	75.5984	2019.64	2.14517	385.44
28	1995.3	2027.48	78.9285	2029.02	2.22936	386.79
29	1584.9	2037.78	82.8939	2039.46	2.32943	388.13
30	1258.9	2048.36	87.71	2050.24	2.45188	389.44
31	1000	2058.39	93.29	2060.5	2.59497	390.845
32	794.33	2070.29	100.01	2072.71	2.76566	392.34
33	630.96	2082.56	107.816	2085.35	2.9636	393.635
34	501.19	2096.82	116.948	2100.08	3.19231	395.015
35	398.11	2111.36	127.321	2115.19	3.45093	396.435
36	316.23	2126.93	139.402	2131.49	3.74988	397.895
37	251.19	2144.58	153.344	2150.05	4.08988	399.315
38	199.53	2163.84	168.839	2170.42	4.46161	400.645
39	158.49	2184.95	186.382	2192.89	4.87566	402.01
40	125.89	2207.12	205.692	2216.69	5.32428	403.47
41	100	2233.46	227.476	2245.01	5.81548	405
42	79.433	2262.18	251.857	2276.16	6.3528	406.46
43	63.096	2293.43	278.756	2310.31	6.93005	407.985
44	50.119	2330.44	309.599	2350.92	7.56744	417.84
45	39.811	2368.57	343.079	2393.29	8.24175	426.905
46	31.623	2411.24	381.215	2441.19	8.98405	428.59
47	25.119	2458.68	423.509	2494.89	9.77334	430.281
48	19.953	2513.02	471.803	2556.93	10.6331	432.176
49	15.849	2571.15	525.12	2624.22	11.5431	434.131
50	12.589	2635.53	586.608	2700.02	12.5482	436.241
51	10	2705.31	653.386	2783.1	13.578	438.611
52	7.9433	2787.07	729.2	2880.88	14.662	441.041
53	6.3096	2875.75	814.06	2988.75	15.8056	443.476
54	5.0119	2973.8	909.535	3109.78	17.0062	446.061
55	3.9811	3079.91	1015.33	3242.95	18.2454	448.581
56	3.1623	3192.42	1134.99	3388.18	19.5717	452.321
57	2.5119	3323.4	1274.73	3559.49	20.9849	454.821
58	1.9953	3462.15	1432.11	3746.66	22.4723	457.531
59	1.5849	3618.31	1615.44	3962.55	24.059	460.361
60	1.2589	3778.95	1825.29	4196.68	25.7812	463.446
61	1	3960.63	2076.34	4471.89	27.6655	466.836
62	0.79433	4170.64	2369.41	4796.7	29.6016	470.201
63	0.63096	4380.83	2703.32	5147.78	31.6778	473.821
64	0.50119	4617.96	3122.58	5574.59	34.0658	477.706
65	0.39811	4881.58	3605.09	6068.49	36.4462	482.036
66	0.31623	5174.07	4202.98	6666.04	39.0875	486.962
67	0.25119	5546.43	4902.76	7402.7	41.4751	492.482
68	0.19953	5942.29	5761.49	8276.81	44.115	498.782
69	0.15849	6398.36	6769.4	9314.71	46.614	506.197
70	0.12589	6859.56	7960.29	10508.1	49.2478	514.777
71	0.1	7465.2	9518.55	12096.8	51.8936	525.042