File: data/20200504/Z_p45_3.txt
Index	Frequency (Hz)	Z' (Ω)	-Z'' (Ω)	Z (Ω)	-Phase (°)	Time (s)
1	1000000	1028.97	401.376	1104.48	21.3095	605.368
2	794330	1069.13	370.059	1131.36	19.0923	607.659
3	630960	1121.01	339.014	1171.15	16.8263	610.09
4	501190	1171.62	307.968	1211.42	14.7274	612.506
5	398110	1207.25	268.63	1236.77	12.5448	614.947
6	316230	1250.65	239.588	1273.4	10.8448	617.263
7	251190	1284.56	211.365	1301.83	9.34392	619.584
8	199530	1311.64	185.544	1324.7	8.0516	621.905
9	158490	1334.24	162.294	1344.07	6.93528	624.221
10	125890	1351.06	141.605	1358.46	5.98337	626.537
11	100000	1366.6	123.798	1372.2	5.17619	634.186
12	79433	1378.19	108.714	1382.47	4.51025	636.532
13	63096	1388.78	95.8464	1392.08	3.948	638.853
14	50119	1397.12	85.053	1399.7	3.48373	641.134
15	39811	1405.12	76.1594	1407.18	3.10247	643.4
16	31623	1412.52	68.8193	1414.19	2.78931	645.941
17	25119	1418.65	63.4339	1420.07	2.56023	648.282
18	19953	1425.1	59.2984	1426.33	2.38271	650.683
19	15849	1430.38	56.2528	1431.49	2.25211	652.939
20	12589	1436.15	54.0018	1437.16	2.15342	655.231
21	10000	1442.36	52.7865	1443.32	2.09594	657.477
22	7943.3	1449.29	52.5619	1450.25	2.07705	659.658
23	6309.6	1454.86	52.8764	1455.82	2.08148	661.934
24	5011.9	1461.42	53.9097	1462.42	2.1126	664.09
25	3981.1	1467.18	55.356	1468.23	2.16071	666.166
26	3162.3	1473.97	57.5888	1475.1	2.23744	668.272
27	2511.9	1482.09	60.2888	1483.32	2.3294	670.388
28	1995.3	1489.37	63.5766	1490.72	2.4443	672.594
29	1584.9	1497.55	67.5196	1499.08	2.58152	674.76
30	1258.9	1505.99	72.137	1507.72	2.74237	676.826
31	1000	1514.72	77.3775	1516.7	2.92434	678.922
32	794.33	1524.93	83.4312	1527.21	3.13161	681.153
33	630.96	1535.92	90.4603	1538.59	3.37062	683.334
34	501.19	1547.45	98.3786	1550.58	3.63766	685.535
35	398.11	1559.52	107.419	1563.21	3.94031	687.551
36	316.23	1573.92	117.771	1578.32	4.27925	689.682
37	251.19	1588.83	129.074	1594.06	4.64442	691.908
38	199.53	1605.82	142.002	1612.09	5.05349	694.189
39	158.49	1624.29	156.098	1631.77	5.48942	696.23
40	125.89	1643.81	171.722	1652.75	5.96382	698.481
41	100	1666.47	188.973	1677.15	6.46957	700.697
42	79.433	1691.22	207.966	1703.96	7.01035	702.933
43	63.096	1718.29	228.727	1733.45	7.58223	705.259
44	50.119	1748.83	251.496	1766.82	8.18347	716.947
45	39.811	1780.57	276.795	1801.96	8.83607	727.013
46	31.623	1817.24	305.046	1842.67	9.52895	729.364
47	25.119	1856.62	335.509	1886.69	10.2434	731.84
48	19.953	1899.6	370.336	1935.37	11.0317	734.601
49	15.849	1946.9	408.214	1989.23	11.8419	737.587
50	12.589	1997.06	450.69	2047.28	12.7173	740.578
51	10	2053.36	498.27	2112.95	13.6398	743.704
52	7.9433	2116.54	552.17	2187.38	14.6216	747.15
53	6.3096	2182.72	611.865	2266.86	15.6593	750.331
54	5.0119	2255.04	679.369	2355.16	16.7658	753.712
55	3.9811	2336.9	756.959	2456.44	17.948	757.108
56	3.1623	2425.53	844.337	2568.29	19.1932	760.474
57	2.5119	2522.4	945.382	2693.74	20.5457	764.031
58	1.9953	2627.06	1060.9	2833.18	21.9906	767.532
59	1.5849	2738.67	1190.22	2986.13	23.4896	773.454
60	1.2589	2865.49	1343.08	3164.63	25.1128	777.245
61	1	3002.6	1522.61	3366.59	26.8894	781.436
62	0.79433	3154.21	1726.08	3595.61	28.6889	785.552
63	0.63096	3317.14	1971.57	3858.82	30.7255	789.993
64	0.50119	3491.29	2257.14	4157.38	32.8829	794.949
65	0.39811	3690.58	2602.35	4515.82	35.1889	800.245
66	0.31623	3901.59	3036.87	4944.19	37.896	806.111
67	0.25119	4144.08	3542.77	5452.03	40.5271	812.502
68	0.19953	4457.68	4131.69	6077.98	42.8265	819.724
69	0.15849	4758.98	4879.38	6815.88	45.7157	828.02
70	0.12589	5126.84	5756.84	7708.8	48.3129	837.591
71	0.1	5595.39	6776.25	8787.83	50.4523	848.677