File: data/20200504/Z_p40_3.txt
Index	Frequency (Hz)	Z' (Ω)	-Z'' (Ω)	Z (Ω)	-Phase (°)	Time (s)
1	1000000	1395.71	575.506	1509.71	22.4083	559.477
2	794330	1450.35	522.323	1541.54	19.8057	561.778
3	630960	1524.83	474.054	1596.82	17.2699	564.099
4	501190	1596.7	429.397	1653.43	15.0523	566.65
5	398110	1652.07	372.892	1693.63	12.7193	569.076
6	316230	1711.71	331.282	1743.47	10.9535	571.452
7	251190	1758.08	290.965	1781.99	9.39734	573.758
8	199530	1775.48	240.922	1791.75	7.72751	576.164
9	158490	1811.31	212.619	1823.75	6.69495	578.485
10	125890	1840.32	186.651	1849.76	5.79131	580.911
11	100000	1861.31	163.42	1868.47	5.01762	583.252
12	79433	1879.54	143.773	1885.03	4.37425	585.458
13	63096	1893.63	126.804	1897.87	3.831	587.744
14	50119	1906.74	112.597	1910.07	3.3795	589.99
15	39811	1918.27	100.834	1920.92	3.00899	592.286
16	31623	1926.6	91.0693	1928.75	2.70633	594.477
17	25119	1935.63	83.9984	1937.45	2.48484	596.673
18	19953	1944.1	78.3821	1945.68	2.30879	598.904
19	15849	1951.71	74.2456	1953.13	2.17855	601.166
20	12589	1960.1	71.4319	1961.4	2.08711	603.467
21	10000	1967.21	69.5809	1968.44	2.02573	605.793
22	7943.3	1976.07	68.8871	1977.27	1.99656	608.114
23	6309.6	1983.5	68.9096	1984.69	1.98974	610.325
24	5011.9	1992.61	69.686	1993.83	2.00295	612.716
25	3981.1	2001.6	71.0356	2002.86	2.03254	614.977
26	3162.3	2009.2	72.9369	2010.52	2.07901	617.123
27	2511.9	2019.04	75.6439	2020.46	2.1456	619.544
28	1995.3	2028.18	78.8456	2029.71	2.22625	621.77
29	1584.9	2038.68	82.8357	2040.36	2.32676	624.121
30	1258.9	2049.14	87.6256	2051.01	2.4486	626.347
31	1000	2061.24	93.3302	2063.35	2.59251	628.713
32	794.33	2072.59	100.058	2075.01	2.7639	630.989
33	630.96	2084.64	107.882	2087.43	2.96247	633.075
34	501.19	2098.85	116.933	2102.1	3.18881	635.256
35	398.11	2112.82	127.383	2116.66	3.45021	637.242
36	316.23	2129.15	139.506	2133.71	3.74877	639.243
37	251.19	2145.97	153.22	2151.44	4.08392	641.509
38	199.53	2165.36	168.827	2171.93	4.45817	643.8
39	158.49	2186.86	186.438	2194.79	4.8729	646.266
40	125.89	2210.08	205.818	2219.65	5.32041	649.172
41	100	2234.42	227.637	2245.98	5.81709	651.288
42	79.433	2263.49	251.878	2277.46	6.34969	653.444
43	63.096	2295.65	279.212	2312.57	6.93461	655.871
44	50.119	2331.96	309.522	2352.42	7.56069	667.368
45	39.811	2369.68	343.18	2394.4	8.24035	677.519
46	31.623	2414.2	381.274	2444.12	8.9746	680.155
47	25.119	2460.75	423.614	2496.95	9.76764	682.826
48	19.953	2514.21	472.503	2558.23	10.6436	685.812
49	15.849	2571.03	525.828	2624.25	11.5587	688.743
50	12.589	2637.2	586.78	2701.69	12.544	691.729
51	10	2709.15	653.61	2786.88	13.564	694.925
52	7.9433	2788.42	729.693	2882.31	14.6647	698.136
53	6.3096	2877.26	813.744	2990.12	15.7919	701.632
54	5.0119	2975.22	910.314	3111.37	17.0123	704.923
55	3.9811	3082.9	1016.93	3246.29	18.2557	708.449
56	3.1623	3201.03	1137	3396.96	19.5549	711.926
57	2.5119	3328.45	1275.09	3564.32	20.9613	715.297
58	1.9953	3470.89	1435.17	3755.9	22.4645	718.983
59	1.5849	3619.33	1615.09	3963.34	24.0483	725.1
60	1.2589	3784.07	1826.51	4201.82	25.7658	728.711
61	1	3964.75	2076.92	4475.8	27.6476	732.897
62	0.79433	4170.54	2366.96	4795.41	29.5768	737.023
63	0.63096	4393.57	2707.15	5160.63	31.6398	741.604
64	0.50119	4630.49	3112.98	5579.61	33.9121	746.46
65	0.39811	4901.87	3609.42	6087.38	36.3655	751.616
66	0.31623	5182.09	4212.43	6678.22	39.1071	757.377
67	0.25119	5524.49	4930.43	7404.67	41.7479	763.744
68	0.19953	5947.67	5758.56	8278.63	44.0745	771.035
69	0.15849	6374.12	6807.03	9325.51	46.8811	779.201
70	0.12589	6906.25	8035.91	10595.9	49.3235	788.582
71	0.1	7529.68	9459.42	12090.4	51.4803	799.688