File: data/20200504/Z_p43_1.txt
Index	Frequency (Hz)	Z' (Ω)	-Z'' (Ω)	Z (Ω)	-Phase (°)	Time (s)
1	1000000	2022.45	1107.66	2305.91	28.7088	32.6024
2	794330	2152.79	1013.05	2379.23	25.2005	33.9974
3	630960	2314.47	941.624	2498.68	22.1386	35.3424
4	501190	2473.02	874.28	2623.01	19.4699	36.8025
5	398110	2619.98	797.533	2738.68	16.9305	39.1825
6	316230	2752.31	735.042	2848.77	14.9526	40.4325
7	251190	2817.55	634.121	2888.03	12.6837	42.6726
8	199530	2929	585.15	2986.88	11.2977	43.9576
9	158490	3017.47	534.979	3064.53	10.0537	46.1676
10	125890	3096.99	485.554	3134.82	8.91046	47.3377
11	100000	3162.32	439.524	3192.72	7.91272	48.6427
12	79433	3217.98	396.773	3242.34	7.02904	49.9127
13	63096	3267.3	357.485	3286.8	6.24407	51.3177
14	50119	3309.79	321.876	3325.4	5.55454	52.6778
15	39811	3347.81	289.954	3360.34	4.95004	53.9578
16	31623	3380.44	261.617	3390.54	4.42538	55.2328
17	25119	3408.39	238.544	3416.72	4.00346	56.5528
18	19953	3433.37	218.734	3440.33	3.64529	57.8279
19	15849	3457.64	202.212	3463.55	3.347	59.0829
20	12589	3478.99	188.445	3484.09	3.10048	60.3329
21	10000	3501.08	178.086	3505.61	2.9119	61.6229
22	7943.3	3520.43	169.563	3524.51	2.75754	62.9379
23	6309.6	3539.57	163.353	3543.34	2.64236	64.198
24	5011.9	3561.53	159.082	3565.08	2.55753	65.518
25	3981.1	3580.35	156.508	3583.77	2.50298	66.798
26	3162.3	3599.5	155.137	3602.85	2.4679	68.098
27	2511.9	3618.15	155.075	3621.47	2.45421	69.3981
28	1995.3	3637.95	156.502	3641.31	2.46331	70.6631
29	1584.9	3657.66	158.986	3661.12	2.48888	71.8831
30	1258.9	3677.55	162.784	3681.15	2.5345	73.1681
31	1000	3699.85	168.253	3703.67	2.60377	74.4482
32	794.33	3722.93	175.07	3727.05	2.69234	75.8182
33	630.96	3743.3	183.163	3747.78	2.8013	77.0732
34	501.19	3766.16	193.212	3771.12	2.93682	78.4132
35	398.11	3793.58	205.388	3799.14	3.09901	79.6983
36	316.23	3817.39	219.323	3823.68	3.28824	81.0083
37	251.19	3846.9	235.465	3854.1	3.50265	83.0833
38	199.53	3876.36	254.007	3884.67	3.74908	84.3033
39	158.49	3908.68	275.083	3918.34	4.0257	85.6184
40	125.89	3942.98	298.852	3954.29	4.33435	86.9634
41	100	3978.66	325.111	3991.92	4.67147	88.3334
42	79.433	4022.02	354.855	4037.64	5.04204	89.7284
43	63.096	4066.13	387.793	4084.59	5.4479	91.1785
44	50.119	4116.53	425.751	4138.48	5.90481	92.6135
45	39.811	4168.91	466.666	4194.95	6.38707	101.769
46	31.623	4227.51	512.992	4258.52	6.91879	103.374
47	25.119	4288.71	565.596	4325.84	7.51283	105.054
48	19.953	4357.65	626.785	4402.5	8.18503	106.929
49	15.849	4431.4	696.225	4485.76	8.92885	108.854
50	12.589	4511.6	774.171	4577.54	9.73688	110.909
51	10	4602	863.917	4682.39	10.6322	113.174
52	7.9433	4700.58	968.217	4799.26	11.6389	115.499
53	6.3096	4812.69	1087.38	4934	12.7316	117.774
54	5.0119	4930.73	1224.52	5080.51	13.947	120.219
55	3.9811	5069.76	1383.56	5255.16	15.2646	122.584
56	3.1623	5222.17	1565.36	5451.74	16.6862	125.124
57	2.5119	5396.17	1777.49	5681.38	18.2318	127.664
58	1.9953	5587.36	2018.55	5940.8	19.8633	130.344
59	1.5849	5805.18	2296.52	6242.92	21.5836	133.084
60	1.2589	6046.8	2622.97	6591.18	23.4502	135.974
61	1	6330.19	2994.29	7002.65	25.315	140.994
62	0.79433	6649.1	3428.3	7480.89	27.2758	144.084
63	0.63096	7016.13	3912.66	8033.36	29.1469	147.55
64	0.50119	7422.49	4497.55	8678.78	31.2132	151.4
65	0.39811	7882.29	5153.42	9417.44	33.1765	155.64
66	0.31623	8439.2	5963.28	10333.5	35.2457	160.29
67	0.25119	9055.9	6808.05	11329.6	36.9351	165.755
68	0.19953	9797.23	7821.2	12536.2	38.6006	172.03
69	0.15849	10597.2	8996.8	13901.2	40.3307	179.335
70	0.12589	11543.9	10456.3	15575.5	42.1699	187.865
71	0.1	12716.8	11899.6	17416	43.0986	198.01