File: data/20200504/Z_p42_2.txt
Index	Frequency (Hz)	Z' (Ω)	-Z'' (Ω)	Z (Ω)	-Phase (°)	Time (s)
1	1000000	1767.24	813.562	1945.51	24.7193	449.978
2	794330	1851.02	735.18	1991.68	21.6617	451.373
3	630960	1960.99	670.52	2072.45	18.8771	452.753
4	501190	2067.17	611.274	2155.65	16.4733	454.228
5	398110	2156.3	536.483	2222.04	13.9714	455.598
6	316230	2242.47	482.709	2293.83	12.148	456.948
7	251190	2273.76	403.067	2309.21	10.0523	459.193
8	199530	2344.28	364.371	2372.43	8.83477	460.478
9	158490	2398.06	325.988	2420.11	7.74125	461.848
10	125890	2443.31	290.219	2460.49	6.77391	463.113
11	100000	2479.08	257.451	2492.41	5.92889	464.558
12	79433	2509.92	228.964	2520.34	5.21231	465.833
13	63096	2535.27	203.666	2543.43	4.59288	467.213
14	50119	2556.86	181.779	2563.31	4.06659	468.583
15	39811	2576.12	163.226	2581.28	3.62548	469.938
16	31623	2592.03	147.348	2596.21	3.25358	471.223
17	25119	2606.45	135.447	2609.97	2.97477	472.613
18	19953	2619.88	125.926	2622.9	2.75184	473.918
19	15849	2634.64	118.513	2637.3	2.57558	476.053
20	12589	2646.53	113.15	2648.94	2.44814	477.278
21	10000	2658.58	109.405	2660.83	2.35648	478.548
22	7943.3	2671.18	107.357	2673.33	2.30152	479.813
23	6309.6	2683.83	106.447	2685.94	2.2713	481.093
24	5011.9	2696.76	106.734	2698.87	2.2665	482.409
25	3981.1	2710.52	108.153	2712.67	2.28496	483.769
26	3162.3	2723.6	110.504	2725.84	2.32337	485.039
27	2511.9	2737.29	113.881	2739.66	2.38233	486.319
28	1995.3	2752.31	118.05	2754.84	2.45598	487.584
29	1584.9	2767.89	123.17	2770.63	2.54796	488.864
30	1258.9	2783.19	129.293	2786.19	2.65977	490.169
31	1000	2800.32	136.589	2803.65	2.79245	491.439
32	794.33	2817.49	145.012	2821.22	2.94634	492.809
33	630.96	2838.41	154.452	2842.61	3.11467	494.069
34	501.19	2857.71	165.285	2862.48	3.3102	495.384
35	398.11	2880.79	177.942	2886.28	3.53459	496.699
36	316.23	2903.59	191.991	2909.93	3.783	497.979
37	251.19	2928.92	207.844	2936.28	4.05907	499.269
38	199.53	2956.14	225.288	2964.72	4.3581	500.519
39	158.49	2984.56	244.716	2994.58	4.68743	501.839
40	125.89	3017.23	266.284	3028.96	5.04353	503.209
41	100	3052.17	289.511	3065.87	5.41854	504.529
42	79.433	3089.13	315.323	3105.18	5.82828	505.889
43	63.096	3130.62	343.689	3149.43	6.26502	507.304
44	50.119	3178.17	375.275	3200.25	6.73424	508.719
45	39.811	3225.94	409.887	3251.88	7.24119	517.759
46	31.623	3278.13	448.186	3308.63	7.78521	519.374
47	25.119	3336.79	491.036	3372.73	8.37145	520.974
48	19.953	3400.52	540.33	3443.18	9.02862	522.799
49	15.849	3468.37	593.542	3518.79	9.71096	524.709
50	12.589	3544.81	652.168	3604.3	10.4246	526.654
51	10	3628.51	719.204	3699.1	11.2112	528.934
52	7.9433	3719.92	791.966	3803.29	12.0187	531.204
53	6.3096	3822.45	874.055	3921.11	12.88	533.509
54	5.0119	3929.69	964.968	4046.43	13.7965	535.92
55	3.9811	4052.15	1066.96	4190.26	14.7515	538.285
56	3.1623	4184.26	1180.86	4347.7	15.7599	540.74
57	2.5119	4328.16	1310.79	4522.29	16.849	543.2
58	1.9953	4487.48	1456.38	4717.9	17.9805	545.785
59	1.5849	4660.09	1621.05	4933.99	19.1807	548.475
60	1.2589	4851.03	1805.37	5176.09	20.4133	551.315
61	1	5058.43	2020.62	5447.07	21.7746	554.59
62	0.79433	5300.88	2257.37	5761.52	23.0666	557.775
63	0.63096	5553.96	2540	6107.22	24.5761	561.29
64	0.50119	5834.36	2845.49	6491.27	25.9991	565.035
65	0.39811	6150.19	3215.03	6939.83	27.5985	569.165
66	0.31623	6472.52	3648.21	7429.87	29.4076	573.91
67	0.25119	6903.05	4145.07	8051.94	30.9836	579.335
68	0.19953	7346.75	4721.27	8732.99	32.7262	585.515
69	0.15849	7836.38	5368.12	9498.71	34.4121	592.846
70	0.12589	8305.75	6156.23	10338.5	36.5459	601.331
71	0.1	9026.06	7102.7	11485.6	38.1996	611.466