File: data/20200504/Z_p47_2.txt
Index	Frequency (Hz)	Z' (Ω)	-Z'' (Ω)	Z (Ω)	-Phase (°)	Time (s)
1	1000000	1304.26	522.614	1405.07	21.8359	398.659
2	794330	1355.3	472.661	1435.36	19.2261	400.054
3	630960	1422.24	429.342	1485.63	16.7978	401.444
4	501190	1487.77	387.336	1537.36	14.5928	402.914
5	398110	1534.43	335.276	1570.63	12.3255	404.304
6	316230	1587.19	296.862	1614.72	10.594	405.619
7	251190	1628.03	259.669	1648.61	9.06226	406.914
8	199530	1660.28	226.05	1675.6	7.75322	408.299
9	158490	1674.49	188.978	1685.12	6.43902	409.674
10	125890	1698.68	164.777	1706.65	5.54052	410.914
11	100000	1718.8	143.705	1724.8	4.77928	412.279
12	79433	1735.24	125.626	1739.78	4.14081	413.559
13	63096	1747.74	109.954	1751.19	3.59987	414.949
14	50119	1757.98	96.7057	1760.64	3.14864	416.349
15	39811	1768.1	85.6254	1770.18	2.77254	417.709
16	31623	1775.28	76.4056	1776.92	2.46442	418.984
17	25119	1782.59	69.3473	1783.94	2.22782	420.249
18	19953	1789.32	63.5748	1790.44	2.03488	421.524
19	15849	1794.92	59.1281	1795.89	1.88675	423.009
20	12589	1801.36	55.7816	1802.22	1.77368	424.394
21	10000	1807.27	53.417	1808.06	1.69298	425.669
22	7943.3	1813.3	51.6238	1814.03	1.63075	426.93
23	6309.6	1819.47	50.4719	1820.17	1.58897	428.24
24	5011.9	1826.66	49.9207	1827.34	1.56544	429.59
25	3981.1	1832.96	49.5804	1833.63	1.54944	430.84
26	3162.3	1839	49.7414	1839.67	1.54936	432.095
27	2511.9	1845.77	50.1998	1846.46	1.5579	433.405
28	1995.3	1852.43	50.814	1853.13	1.57128	434.725
29	1584.9	1859.49	51.7655	1860.21	1.59462	435.945
30	1258.9	1865.36	52.8013	1866.11	1.62139	437.19
31	1000	1873	54.2293	1873.78	1.65844	438.48
32	794.33	1881.11	55.9584	1881.94	1.70391	439.915
33	630.96	1888.19	57.9622	1889.08	1.75827	441.175
34	501.19	1896.08	60.2402	1897.04	1.81972	442.445
35	398.11	1904.29	62.9236	1905.32	1.89255	443.585
36	316.23	1913.23	65.9309	1914.36	1.97366	444.885
37	251.19	1922.16	69.5374	1923.42	2.07187	446.21
38	199.53	1931.65	73.3794	1933.04	2.17551	447.585
39	158.49	1941.43	77.8893	1943	2.29744	448.885
40	125.89	1951.46	82.5174	1953.2	2.42131	450.225
41	100	1961.94	87.9985	1963.91	2.56816	451.565
42	79.433	1974.02	93.9278	1976.25	2.72419	452.955
43	63.096	1986.62	100.438	1989.16	2.89425	454.66
44	50.119	2000.24	107.857	2003.15	3.08651	464.72
45	39.811	2015.83	115.658	2019.15	3.28373	473.795
46	31.623	2031.62	124.789	2035.45	3.5149	475.385
47	25.119	2047.88	134.617	2052.3	3.76092	477.02
48	19.953	2063.17	145.866	2068.32	4.04409	478.87
49	15.849	2081.93	158.362	2087.95	4.34982	480.796
50	12.589	2101.79	173.517	2108.94	4.71947	482.846
51	10	2120.18	190.106	2128.68	5.12374	485.086
52	7.9433	2142.01	209.337	2152.22	5.58174	487.396
53	6.3096	2162.75	232.626	2175.22	6.13917	489.771
54	5.0119	2185.98	259.979	2201.38	6.78236	492.181
55	3.9811	2209.93	293.247	2229.3	7.55872	494.576
56	3.1623	2235.03	332.077	2259.56	8.45108	497.066
57	2.5119	2264.21	380.74	2296	9.54532	499.626
58	1.9953	2291.89	439.796	2333.7	10.8626	502.246
59	1.5849	2326.36	511.052	2381.83	12.3899	505.031
60	1.2589	2359.82	595.327	2433.75	14.159	507.866
61	1	2395	704.623	2496.5	16.3942	511.096
62	0.79433	2440.98	828.269	2577.67	18.743	514.341
63	0.63096	2487.45	989.121	2676.89	21.685	517.846
64	0.50119	2534.04	1176.55	2793.86	24.9054	521.611
65	0.39811	2596.62	1420.43	2959.74	28.6801	525.861
66	0.31623	2649.9	1715.03	3156.47	32.9112	530.586
67	0.25119	2747.97	2084.6	3449.19	37.1839	535.947
68	0.19953	2837.76	2542.86	3810.38	41.8629	542.217
69	0.15849	2947.3	3082.9	4265.08	46.2882	549.487
70	0.12589	3035.57	3742.25	4818.62	50.9524	558.012
71	0.1	3185.48	4632.19	5621.78	55.4844	568.117