File: data/20200504/Z_p41_2.txt
Index	Frequency (Hz)	Z' (Ω)	-Z'' (Ω)	Z (Ω)	-Phase (°)	Time (s)
1	1000000	1538.23	644.667	1667.86	22.7384	360.98
2	794330	1599.58	579.649	1701.36	19.9193	362.585
3	630960	1685.39	526.569	1765.73	17.3504	364.26
4	501190	1764.69	474.675	1827.42	15.0553	365.88
5	398110	1827.37	408.804	1872.54	12.6101	367.48
6	316230	1893.3	363.023	1927.79	10.8542	368.825
7	251190	1910.49	296.063	1933.29	8.8089	370.285
8	199530	1960.67	263.637	1978.31	7.65822	371.795
9	158490	2000.35	232.207	2013.78	6.62146	373.23
10	125890	2031.02	203.343	2041.17	5.71733	374.676
11	100000	2054.34	177.766	2062.02	4.94559	376.281
12	79433	2074.08	156.121	2079.95	4.30468	377.741
13	63096	2089.28	137.59	2093.81	3.76777	379.351
14	50119	2102.88	121.683	2106.4	3.31172	381.046
15	39811	2115	108.615	2117.79	2.93982	382.631
16	31623	2125	97.971	2127.26	2.6397	384.246
17	25119	2132.71	90.0843	2134.62	2.41869	385.771
18	19953	2141.74	83.9096	2143.38	2.2436	387.371
19	15849	2150.18	79.2776	2151.64	2.11155	388.831
20	12589	2159.16	76.1439	2160.51	2.01973	390.301
21	10000	2167.72	74.0944	2168.98	1.95766	391.826
22	7943.3	2174.71	73.2878	2175.94	1.93014	393.271
23	6309.6	2184.46	73.2927	2185.69	1.92166	394.831
24	5011.9	2193.02	73.9222	2194.26	1.93059	396.286
25	3981.1	2203.16	75.4742	2204.45	1.96203	397.651
26	3162.3	2212.23	77.3456	2213.58	2.00241	399.111
27	2511.9	2222.18	80.0012	2223.62	2.06182	400.561
28	1995.3	2232.69	83.3416	2234.24	2.13774	402.036
29	1584.9	2242.39	87.3023	2244.09	2.22955	403.286
30	1258.9	2254.26	92.004	2256.13	2.33714	404.526
31	1000	2266.06	97.669	2268.16	2.46797	406.006
32	794.33	2278.66	104.205	2281.04	2.61836	407.616
33	630.96	2291.37	111.725	2294.09	2.79147	409.126
34	501.19	2306.45	120.762	2309.6	2.99719	410.596
35	398.11	2321.93	130.876	2325.62	3.22606	412.026
36	316.23	2337.99	142.408	2342.32	3.48561	413.436
37	251.19	2355.6	155.852	2360.75	3.7853	414.951
38	199.53	2374.75	170.765	2380.89	4.11299	416.436
39	158.49	2396.88	187.663	2404.21	4.47683	417.896
40	125.89	2420.74	206.389	2429.52	4.87318	419.451
41	100	2447.01	227.25	2457.54	5.30575	420.886
42	79.433	2475.5	250.584	2488.15	5.78013	422.381
43	63.096	2506.97	276.232	2522.15	6.2878	423.961
44	50.119	2544.79	304.691	2562.96	6.8276	434.222
45	39.811	2584	336.275	2605.79	7.41465	443.367
46	31.623	2629.43	370.887	2655.46	8.02874	445.172
47	25.119	2676.74	410.08	2707.97	8.71007	446.992
48	19.953	2726.77	453.341	2764.2	9.43942	449.047
49	15.849	2786.3	501.265	2831.03	10.1986	451.127
50	12.589	2848.74	554.499	2902.2	11.0147	453.257
51	10	2918.34	613.915	2982.21	11.8798	455.662
52	7.9433	2993.45	680.691	3069.86	12.8109	458.142
53	6.3096	3078.72	758.351	3170.75	13.8376	460.757
54	5.0119	3172.26	841.643	3282.01	14.859	463.172
55	3.9811	3270.94	934.396	3401.78	15.9429	465.697
56	3.1623	3384.11	1041.07	3540.63	17.0998	468.217
57	2.5119	3508.44	1160.45	3695.38	18.3022	470.872
58	1.9953	3633.96	1294.39	3857.61	19.6056	475.042
59	1.5849	3778.42	1448.49	4046.56	20.9748	477.772
60	1.2589	3932.11	1625.72	4254.93	22.4625	480.702
61	1	4097.65	1836.41	4490.34	24.1402	484.028
62	0.79433	4287.57	2079.61	4765.3	25.8749	487.218
63	0.63096	4476.24	2369.54	5064.72	27.895	490.838
64	0.50119	4682.6	2717.9	5414.21	30.132	494.793
65	0.39811	4907.97	3121.77	5816.67	32.4589	499.293
66	0.31623	5155.77	3630.47	6305.73	35.1516	504.278
67	0.25119	5481.71	4245.18	6933.31	37.7551	509.748
68	0.19953	5801.7	4992.03	7653.76	40.7101	516.168
69	0.15849	6199.24	5868.79	8536.58	43.4315	523.563
70	0.12589	6634.24	6876.55	9555.1	46.0274	532.438
71	0.1	7046.31	8172.74	10790.9	49.233	542.829