File: data/20200504/Z_p43_3.txt
Index	Frequency (Hz)	Z' (Ω)	-Z'' (Ω)	Z (Ω)	-Phase (°)	Time (s)
1	1000000	2024.82	1101.2	2304.89	28.5396	575.27
2	794330	2147.94	1010.4	2373.72	25.1924	577.475
3	630960	2314.05	939.637	2497.55	22.1	579.62
4	501190	2473.13	874.576	2623.21	19.4752	581.975
5	398110	2619.97	796.3	2738.31	16.9058	584.07
6	316230	2752.17	734.165	2848.41	14.9363	586.165
7	251190	2817.89	633.008	2888.12	12.6607	588.285
8	199530	2926.86	584.98	2984.75	11.3026	590.45
9	158490	3019.41	534.401	3066.34	10.0368	592.52
10	125890	3097.81	486.381	3135.76	8.92304	594.52
11	100000	3162.47	439.698	3192.89	7.91546	596.76
12	79433	3219.05	396.958	3243.44	7.02995	598.866
13	63096	3268.64	357.908	3288.17	6.24886	600.946
14	50119	3309.74	322.09	3325.37	5.55829	603.121
15	39811	3348.42	290.198	3360.97	4.95329	605.281
16	31623	3380.65	261.714	3390.77	4.42674	607.331
17	25119	3406.92	238.516	3415.25	4.0047	609.281
18	19953	3434.92	218.872	3441.88	3.64595	611.291
19	15849	3458.56	202.324	3464.48	3.34796	613.401
20	12589	3480.91	188.837	3486.03	3.10521	615.481
21	10000	3501.33	177.866	3505.84	2.90809	617.556
22	7943.3	3522.19	169.737	3526.28	2.759	619.626
23	6309.6	3541.29	163.593	3545.07	2.64494	621.631
24	5011.9	3560.71	159.203	3564.27	2.56005	623.786
25	3981.1	3580.79	156.599	3584.21	2.50413	625.841
26	3162.3	3599.06	155.288	3602.41	2.47059	627.886
27	2511.9	3618.31	155.274	3621.65	2.45725	629.846
28	1995.3	3638.22	156.692	3641.59	2.46611	631.816
29	1584.9	3659.12	159.31	3662.59	2.49296	633.861
30	1258.9	3679.38	162.822	3682.98	2.53382	635.996
31	1000	3700.56	168.442	3704.4	2.60618	638.001
32	794.33	3722.73	175.465	3726.86	2.69855	640.156
33	630.96	3746.21	183.587	3750.71	2.8056	642.196
34	501.19	3769.29	193.534	3774.26	2.93927	644.236
35	398.11	3793.61	205.499	3799.18	3.10066	646.291
36	316.23	3819.67	219.412	3825.97	3.28761	648.316
37	251.19	3847.96	235.687	3855.17	3.50498	650.446
38	199.53	3878.58	254.328	3886.91	3.75164	652.507
39	158.49	3908.81	275.33	3918.5	4.02916	654.682
40	125.89	3943.16	299.105	3954.49	4.33781	656.777
41	100	3980.18	325.448	3993.46	4.67451	658.832
42	79.433	4024.06	355.377	4039.72	5.04688	661.012
43	63.096	4070.05	388.443	4088.55	5.45176	663.302
44	50.119	4118.55	425.41	4140.47	5.89723	665.422
45	39.811	4170.07	467.106	4196.15	6.39128	675.187
46	31.623	4230.44	513.661	4261.51	6.92297	677.632
47	25.119	4291.55	566.438	4328.77	7.51896	679.942
48	19.953	4360.05	627.809	4405.02	8.19378	682.637
49	15.849	4433.86	696.785	4488.27	8.93104	685.367
50	12.589	4514.79	775.662	4580.93	9.74852	688.197
51	10	4605.56	866.196	4686.31	10.6515	691.322
52	7.9433	4704.7	969.833	4803.63	11.6479	694.362
53	6.3096	4816.15	1090.37	4938.03	12.7566	697.417
54	5.0119	4937.96	1226.78	5088.07	13.952	700.477
55	3.9811	5074.54	1385.06	5260.16	15.2667	703.597
56	3.1623	5228.67	1569.82	5459.24	16.7115	706.798
57	2.5119	5401.75	1779.62	5687.35	18.2345	710.113
58	1.9953	5592.28	2021.73	5946.51	19.876	713.513
59	1.5849	5810.55	2300.13	6249.24	21.5963	717.128
60	1.2589	6056.49	2622.75	6599.99	23.4149	720.773
61	1	6338.81	2999.6	7012.71	25.3241	727.248
62	0.79433	6659.31	3426.39	7489.09	27.227	731.088
63	0.63096	7019.39	3930.11	8044.72	29.2442	735.393
64	0.50119	7442.66	4507.26	8701.07	31.199	740.033
65	0.39811	7920.03	5172.48	9459.46	33.1481	744.963
66	0.31623	8447.73	5969.4	10344	35.2461	750.478
67	0.25119	9108.79	6862.85	11404.8	36.9955	756.613
68	0.19953	9774.28	7860.29	12542.8	38.8056	763.624
69	0.15849	10636	9007.55	13937.7	40.2611	771.704
70	0.12589	11644.1	10444.4	15642	41.8912	782.264
71	0.1	12652.3	12071.3	17487	43.6539	799.524