File: data/20200504/Z_p49_3.txt
Index	Frequency (Hz)	Z' (Ω)	-Z'' (Ω)	Z (Ω)	-Phase (°)	Time (s)
1	1000000	1227.22	549.371	1344.57	24.116	529.735
2	794330	1287.19	512.225	1385.36	21.6996	532.085
3	630960	1363.47	477.4	1444.64	19.2969	534.285
4	501190	1439.68	442.544	1506.16	17.087	536.555
5	398110	1497.73	396.165	1549.24	14.816	538.87
6	316230	1563.28	362.165	1604.68	13.0436	541.12
7	251190	1615.98	327.41	1648.82	11.4535	543.265
8	199530	1661.18	294.706	1687.12	10.0601	545.451
9	158490	1687.78	257.11	1707.25	8.66163	549.441
10	125890	1724.14	233.363	1739.87	7.70814	551.521
11	100000	1753.21	211.384	1765.9	6.87495	553.721
12	79433	1779.45	192.803	1789.86	6.18385	555.906
13	63096	1801.21	176.242	1809.81	5.5884	557.966
14	50119	1820.97	162.776	1828.23	5.10807	560.231
15	39811	1839.84	151.596	1846.08	4.7103	562.421
16	31623	1855.7	142.614	1861.17	4.39465	564.511
17	25119	1870.25	136.581	1875.23	4.1768	566.581
18	19953	1886.97	132.359	1891.6	4.01237	568.766
19	15849	1902.75	130.197	1907.2	3.91439	570.946
20	12589	1917.3	129.438	1921.67	3.86221	573.106
21	10000	1933.05	130.339	1937.43	3.85742	575.206
22	7943.3	1949.57	132.532	1954.06	3.88899	577.361
23	6309.6	1966.59	135.928	1971.29	3.95392	579.456
24	5011.9	1984.08	140.293	1989.03	4.04462	581.576
25	3981.1	2002.81	145.774	2008.11	4.1629	583.676
26	3162.3	2023.5	152.071	2029.2	4.29785	585.801
27	2511.9	2044.08	159.256	2050.28	4.45496	587.951
28	1995.3	2066.17	167.089	2072.91	4.62341	590.036
29	1584.9	2088.99	175.546	2096.36	4.80349	592.086
30	1258.9	2114.98	184.813	2123.04	4.99397	594.176
31	1000	2141.31	194.815	2150.15	5.19844	596.211
32	794.33	2168.85	205.294	2178.55	5.40725	598.346
33	630.96	2199.08	216.628	2209.73	5.62596	600.532
34	501.19	2229.38	228.369	2241.05	5.84874	602.552
35	398.11	2263.38	240.905	2276.17	6.07544	604.522
36	316.23	2299.51	254.006	2313.5	6.30338	606.472
37	251.19	2336.54	267.353	2351.78	6.52754	608.592
38	199.53	2375.02	280.933	2391.58	6.74597	610.572
39	158.49	2416.48	294.799	2434.4	6.95544	612.542
40	125.89	2461.36	308.795	2480.65	7.1508	614.622
41	100	2506.46	322.511	2527.12	7.33207	616.872
42	79.433	2555.1	336.199	2577.12	7.49589	619.107
43	63.096	2604.5	349.895	2627.9	7.65144	621.352
44	50.119	2655.74	363.371	2680.48	7.7911	623.547
45	39.811	2708.99	377.192	2735.12	7.92674	633.387
46	31.623	2763.43	391.162	2790.98	8.05664	635.792
47	25.119	2818.55	406.372	2847.7	8.20423	638.067
48	19.953	2875.56	423.704	2906.61	8.38203	640.602
49	15.849	2931.91	442.86	2965.17	8.58951	643.202
50	12.589	2991.35	463.926	3027.11	8.81571	645.877
51	10	3052.58	488.814	3091.47	9.09761	648.852
52	7.9433	3114.93	517.595	3157.64	9.43441	651.872
53	6.3096	3182.31	551.482	3229.74	9.83149	654.948
54	5.0119	3251.5	590.955	3304.76	10.301	658.283
55	3.9811	3326.77	636.441	3387.11	10.8303	661.558
56	3.1623	3405.42	689.494	3474.52	11.4459	664.913
57	2.5119	3492.42	751.383	3572.34	12.1419	668.353
58	1.9953	3586.04	820.882	3678.79	12.8935	671.743
59	1.5849	3689.77	899.822	3797.9	13.7052	675.243
60	1.2589	3798.84	989.199	3925.52	14.5954	678.963
61	1	3920.72	1092.48	4070.08	15.5701	683.193
62	0.79433	4060.58	1204.89	4235.57	16.5271	687.268
63	0.63096	4211.6	1329.74	4416.54	17.5226	691.813
64	0.50119	4373.4	1480.14	4617.08	18.698	696.428
65	0.39811	4557.93	1646.27	4846.13	19.8591	701.473
66	0.31623	4758.03	1820.26	5094.33	20.9351	706.949
67	0.25119	4985.67	2030.4	5383.25	22.1585	713.209
68	0.19953	5271.26	2253.51	5732.76	23.1472	720.289
69	0.15849	5537.14	2517.07	6082.4	24.4456	728.489
70	0.12589	5853.76	2792.95	6485.91	25.5068	737.869
71	0.1	6204.98	3068.46	6922.23	26.3131	748.769