File: data/20200504/Z_p41_3.txt
Index	Frequency (Hz)	Z' (Ω)	-Z'' (Ω)	Z (Ω)	-Phase (°)	Time (s)
1	1000000	1539.55	643.235	1668.52	22.6755	692.062
2	794330	1600.61	579.179	1702.18	19.8925	694.278
3	630960	1685.6	525.362	1765.57	17.3111	696.999
4	501190	1763.46	471.349	1825.37	14.9645	699.535
5	398110	1827.08	409.131	1872.33	12.6218	701.951
6	316230	1892.5	363.101	1927.02	10.8609	704.462
7	251190	1910.5	295.939	1933.28	8.80522	706.828
8	199530	1961.28	263.123	1978.85	7.6411	709.24
9	158490	1999.96	232.042	2013.38	6.61804	711.661
10	125890	2030.63	203.457	2040.8	5.7216	713.997
11	100000	2053.58	177.719	2061.26	4.94612	716.383
12	79433	2073.7	156.099	2079.57	4.30484	718.699
13	63096	2090.08	137.321	2094.59	3.759	721.02
14	50119	2102.57	121.561	2106.08	3.30891	723.356
15	39811	2114.75	108.603	2117.54	2.93984	725.742
16	31623	2123.67	97.918	2125.92	2.63992	728.003
17	25119	2133.47	90.6776	2135.4	2.43374	730.219
18	19953	2143.08	83.9619	2144.72	2.2436	732.505
19	15849	2150.9	79.3014	2152.36	2.11148	734.841
20	12589	2159.11	76.1823	2160.45	2.02079	737.197
21	10000	2166.4	74.3134	2167.67	1.96463	739.463
22	7943.3	2176.11	73.3107	2177.34	1.9295	741.794
23	6309.6	2184.62	73.2525	2185.85	1.92047	744.015
24	5011.9	2193.52	73.935	2194.76	1.93049	746.476
25	3981.1	2202.64	75.3246	2203.93	1.9586	749.022
26	3162.3	2212.58	77.3488	2213.94	2.00216	751.368
27	2511.9	2222.6	80.1562	2224.05	2.06543	753.654
28	1995.3	2232.79	83.4683	2234.35	2.14089	756.105
29	1584.9	2244.75	87.4614	2246.46	2.23126	758.131
30	1258.9	2254.88	91.991	2256.75	2.33617	760.837
31	1000	2267.07	97.7116	2269.18	2.46794	763.034
32	794.33	2279.88	104.078	2282.26	2.61377	765.235
33	630.96	2292.29	111.767	2295.01	2.79139	767.746
34	501.19	2306.36	120.525	2309.51	2.99143	770.027
35	398.11	2322.21	130.824	2325.89	3.22439	772.438
36	316.23	2338.01	142.404	2342.35	3.48548	774.759
37	251.19	2356.06	155.658	2361.19	3.77987	777.335
38	199.53	2375.72	170.672	2381.84	4.10907	781.882
39	158.49	2397.12	187.659	2404.46	4.47629	783.923
40	125.89	2421.22	206.277	2429.99	4.86959	786.094
41	100	2447.24	227.31	2457.78	5.30665	790.695
42	79.433	2476.03	250.533	2488.67	5.77772	794.856
43	63.096	2508.7	276.376	2523.88	6.28674	802.903
44	50.119	2544.75	304.182	2562.87	6.81639	815.871
45	39.811	2585.78	336.618	2607.6	7.41707	827.797
46	31.623	2630.14	371.531	2656.26	8.04034	830.998
47	25.119	2675.6	408.467	2706.59	8.67998	834.389
48	19.953	2728.21	452.749	2765.52	9.42242	838.01
49	15.849	2784.62	501.432	2829.4	10.208	842.926
50	12.589	2848.69	553.739	2902.01	11.0002	847.317
51	10	2918.62	614.252	2982.56	11.885	859.463
52	7.9433	2993.65	680.274	3069.97	12.8024	865.21
53	6.3096	3077.06	755.39	3168.42	13.7928	869.106
54	5.0119	3168.21	840.058	3277.69	14.8504	875.053
55	3.9811	3270.77	933.703	3401.44	15.9324	879.399
56	3.1623	3382.81	1040.17	3539.11	17.0919	883.94
57	2.5119	3504.98	1160.21	3692.02	18.3155	888.696
58	1.9953	3636.11	1295.17	3859.89	19.6057	906.018
59	1.5849	3777.31	1448.13	4045.38	20.9756	913.656
60	1.2589	3930.6	1627.34	4254.16	22.4905	917.202
61	1	4096.6	1836.96	4489.61	24.152	921.453
62	0.79433	4280.18	2084.6	4760.83	25.9677	926.075
63	0.63096	4478.25	2369.28	5066.38	27.8817	930.441
64	0.50119	4692.92	2715.05	5421.71	30.0511	935.442
65	0.39811	4919.41	3130.99	5831.26	32.475	943.553
66	0.31623	5175.29	3622.32	6317.03	34.9892	950.699
67	0.25119	5465.32	4225.58	6908.35	37.7098	958.705
68	0.19953	5794.31	4990.62	7647.24	40.7383	971.476
69	0.15849	6137.37	5860.3	8485.89	43.6771	979.703
70	0.12589	6569.33	6928.03	9547.44	46.5223	988.989
71	0.1	7125.18	8211.59	10871.9	49.0519	1000.09