File: data/20200504/Z_p43_2.txt
Index	Frequency (Hz)	Z' (Ω)	-Z'' (Ω)	Z (Ω)	-Phase (°)	Time (s)
1	1000000	2023.64	1102.79	2304.62	28.5885	318.253
2	794330	2152.08	1009.93	2377.27	25.1397	319.714
3	630960	2314.43	939.518	2497.86	22.0942	321.134
4	501190	2468.61	877.645	2619.98	19.5714	322.649
5	398110	2618.51	796.359	2736.93	16.9159	324.054
6	316230	2751.16	733.166	2847.18	14.9222	325.404
7	251190	2816.24	633.191	2886.55	12.6714	326.714
8	199530	2926.65	584.568	2984.46	11.2956	328.119
9	158490	3016.81	534.057	3063.72	10.0389	329.499
10	125890	3094.24	485.187	3132.04	8.91161	330.794
11	100000	3160.55	439.202	3190.92	7.91136	332.214
12	79433	3217.15	396.622	3241.51	7.02817	333.489
13	63096	3267.14	357.492	3286.64	6.24449	334.854
14	50119	3309.18	322.029	3324.82	5.55816	336.264
15	39811	3347.62	289.894	3360.15	4.94929	337.589
16	31623	3379.67	261.465	3389.77	4.42383	338.864
17	25119	3407.8	238.309	3416.12	4.00022	340.134
18	19953	3432.38	218.492	3439.33	3.64231	341.434
19	15849	3457.99	202.04	3463.89	3.34381	342.729
20	12589	3479.21	188.49	3484.31	3.10103	344.014
21	10000	3498.86	177.736	3503.37	2.90803	345.274
22	7943.3	3520.04	169.436	3524.12	2.75579	346.569
23	6309.6	3539.46	163.426	3543.23	2.64361	347.859
24	5011.9	3557.32	159.048	3560.88	2.55998	349.129
25	3981.1	3578.01	156.384	3581.43	2.50264	350.394
26	3162.3	3596.76	155.024	3600.1	2.46797	351.704
27	2511.9	3616.03	155.162	3619.36	2.45703	353.029
28	1995.3	3636.15	156.548	3639.52	2.46525	354.319
29	1584.9	3657.2	159.237	3660.66	2.49313	355.569
30	1258.9	3677.45	163.034	3681.06	2.53846	356.829
31	1000	3697.67	168.288	3701.5	2.60584	358.114
32	794.33	3719.3	175.083	3723.42	2.69516	359.509
33	630.96	3741.24	183.062	3745.72	2.80129	360.759
34	501.19	3766.44	193.405	3771.41	2.93952	362.069
35	398.11	3792.35	205.259	3797.9	3.09808	363.349
36	316.23	3818.63	219.451	3824.93	3.28908	364.669
37	251.19	3844.25	235.575	3851.47	3.50668	365.959
38	199.53	3874.39	254.15	3882.72	3.75307	367.139
39	158.49	3907.97	275.173	3917.65	4.02774	368.474
40	125.89	3942.37	298.772	3953.67	4.33387	369.839
41	100	3979.72	325.019	3992.97	4.66892	371.219
42	79.433	4022.06	355.219	4037.71	5.04714	372.585
43	63.096	4065.72	387.434	4084.14	5.44344	374.03
44	50.119	4115.36	425.325	4137.28	5.90061	375.475
45	39.811	4168.28	465.921	4194.24	6.37792	384.57
46	31.623	4224.91	513.045	4255.94	6.92372	386.16
47	25.119	4289.96	565.363	4327.05	7.50761	387.79
48	19.953	4357.36	627.047	4402.25	8.18894	389.635
49	15.849	4429.19	695.527	4483.47	8.92442	391.54
50	12.589	4512.03	773.824	4577.9	9.73169	393.55
51	10	4602.89	864.123	4683.3	10.6327	395.82
52	7.9433	4701.76	968.433	4800.46	11.6386	398.09
53	6.3096	4809.08	1086.67	4930.32	12.7328	400.405
54	5.0119	4931.17	1223.96	5080.79	13.9396	403.66
55	3.9811	5070.19	1382.9	5255.4	15.2564	405.995
56	3.1623	5223.45	1565.17	5452.9	16.6805	408.52
57	2.5119	5392.93	1776.1	5677.87	18.2287	411.075
58	1.9953	5584.16	2018.04	5937.62	19.8692	413.765
59	1.5849	5802.31	2295.11	6239.74	21.5813	416.46
60	1.2589	6048.31	2620.2	6591.48	23.4228	419.35
61	1	6328.49	2993.44	7000.75	25.3146	424.37
62	0.79433	6650.51	3420.37	7478.52	27.2169	427.451
63	0.63096	7017.96	3916.26	8036.72	29.163	430.886
64	0.50119	7413.31	4489.35	8666.69	31.1982	434.666
65	0.39811	7880.03	5156.36	9417.16	33.1991	438.801
66	0.31623	8433.21	5957.25	10325.1	35.2375	443.491
67	0.25119	9060.73	6815.48	11337.9	36.9505	448.966
68	0.19953	9787.57	7826.44	12531.9	38.6469	455.201
69	0.15849	10589.3	9017.71	13908.7	40.4172	462.511
70	0.12589	11552.6	10462.9	15586.4	42.1663	471.001
71	0.1	12705.3	11924.2	17424.4	43.1835	481.182