File: data/20200504/Z_p42_1.txt
Index	Frequency (Hz)	Z' (Ω)	-Z'' (Ω)	Z (Ω)	-Phase (°)	Time (s)
1	1000000	1766.5	811.881	1944.14	24.6834	141.36
2	794330	1851.58	734.425	1991.91	21.6357	142.905
3	630960	1961.54	670.492	2072.96	18.8715	144.26
4	501190	2067.56	608.012	2155.11	16.3871	145.73
5	398110	2155.66	535.518	2221.18	13.9513	147.09
6	316230	2241.94	482.231	2293.22	12.1391	148.466
7	251190	2272.98	402.88	2308.41	10.0511	150.766
8	199530	2341.26	364.483	2369.46	8.84867	152.046
9	158490	2397.21	325.583	2419.22	7.73442	153.446
10	125890	2440.98	290.096	2458.16	6.77747	154.711
11	100000	2477.89	257.313	2491.21	5.92856	156.101
12	79433	2508.24	228.636	2518.64	5.20835	157.401
13	63096	2533.69	203.348	2541.83	4.58858	158.801
14	50119	2555.02	181.671	2561.47	4.06708	160.186
15	39811	2574.5	163.092	2579.66	3.62477	161.476
16	31623	2588.99	147.137	2593.17	3.25271	162.751
17	25119	2605.99	135.543	2609.52	2.97739	164.031
18	19953	2619.31	125.833	2622.33	2.7504	165.386
19	15849	2632.11	118.354	2634.77	2.5746	166.661
20	12589	2644.13	112.917	2646.54	2.44533	167.941
21	10000	2655.61	109.177	2657.85	2.35421	169.221
22	7943.3	2668.82	107.25	2670.98	2.30127	170.541
23	6309.6	2682.44	106.417	2684.55	2.27184	171.876
24	5011.9	2694.41	106.739	2696.52	2.26858	173.156
25	3981.1	2708.58	108.028	2710.73	2.28396	174.451
26	3162.3	2721.55	110.503	2723.79	2.3251	175.746
27	2511.9	2736.08	113.69	2738.45	2.37939	177.141
28	1995.3	2749.52	117.964	2752.04	2.45668	178.486
29	1584.9	2765.63	123.162	2768.37	2.54987	179.766
30	1258.9	2780.96	129.444	2783.97	2.66499	181.031
31	1000	2799.48	136.414	2802.8	2.78973	182.281
32	794.33	2816.43	144.748	2820.15	2.94208	183.691
33	630.96	2835.66	154.402	2839.86	3.11669	185.006
34	501.19	2856.16	165.189	2860.93	3.31007	186.286
35	398.11	2877.51	177.841	2883	3.53661	187.541
36	316.23	2901.67	191.794	2908	3.78162	188.821
37	251.19	2925.3	207.497	2932.65	4.05731	190.986
38	199.53	2952.81	225.161	2961.38	4.36054	192.186
39	158.49	2984.09	244.638	2994.1	4.68667	193.551
40	125.89	3014.44	265.857	3026.14	5.04014	194.946
41	100	3049.04	289.303	3062.73	5.42019	196.291
42	79.433	3087.65	315.351	3103.71	5.83156	197.701
43	63.096	3128.27	343.496	3147.07	6.26619	199.146
44	50.119	3173.86	376.09	3196.06	6.75783	200.591
45	39.811	3224.04	410.119	3250.02	7.24945	209.687
46	31.623	3275.98	448.797	3306.58	7.80074	211.272
47	25.119	3333.9	491.217	3369.89	8.38167	212.942
48	19.953	3397.05	540.53	3439.78	9.04097	214.807
49	15.849	3468.17	593.736	3518.62	9.71463	216.737
50	12.589	3543.4	653.269	3603.12	10.4459	218.727
51	10	3627.7	719.595	3698.38	11.2196	221.002
52	7.9433	3718.54	792.986	3802.16	12.0381	223.302
53	6.3096	3818.32	874.065	3917.09	12.8936	225.612
54	5.0119	3929.15	965.769	4046.1	13.8093	227.967
55	3.9811	4049	1068.44	4187.59	14.7821	230.467
56	3.1623	4180	1182.24	4343.97	15.7926	232.957
57	2.5119	4327.12	1311.87	4521.61	16.8659	235.527
58	1.9953	4484.22	1455.72	4714.59	17.985	238.302
59	1.5849	4658.45	1619.69	4932	19.172	241.067
60	1.2589	4851.34	1806.2	5176.66	20.4208	243.872
61	1	5059.43	2021.98	5448.51	21.7839	247.052
62	0.79433	5299.7	2258.9	5761.03	23.0852	250.317
63	0.63096	5553.25	2539.42	6106.33	24.5739	253.852
64	0.50119	5838.61	2849.05	6496.65	26.0109	257.608
65	0.39811	6152.08	3223.24	6945.31	27.6512	261.818
66	0.31623	6487.37	3635.74	7436.71	29.2677	266.608
67	0.25119	6897.66	4163.64	8056.9	31.1165	271.993
68	0.19953	7307.15	4741.68	8710.79	32.9799	278.533
69	0.15849	7817.5	5415.24	9509.9	34.7106	285.768
70	0.12589	8388.78	6132.71	10391.4	36.1691	294.378
71	0.1	8919.38	7092.48	11395.6	38.4909	304.588