File: data/20200504/Z_p49_1.txt
Index	Frequency (Hz)	Z' (Ω)	-Z'' (Ω)	Z (Ω)	-Phase (°)	Time (s)
1	1000000	1225.22	548.2	1342.27	24.1052	23.8402
2	794330	1284.74	510.161	1382.32	21.6577	25.2552
3	630960	1360.67	475.103	1441.23	19.2476	26.6553
4	501190	1436.38	440.766	1502.49	17.0591	28.2553
5	398110	1494.97	394.371	1546.11	14.7779	29.6903
6	316230	1559.87	360.671	1601.02	13.0191	31.0703
7	251190	1612.68	326.155	1645.33	11.4335	32.3504
8	199530	1657.38	293.637	1683.19	10.0468	33.7604
9	158490	1683.59	256.087	1702.96	8.64884	35.2754
10	125890	1718.45	232.141	1734.06	7.69336	36.5754
11	100000	1749.27	210.564	1761.9	6.86383	37.9655
12	79433	1774.24	191.704	1784.57	6.16678	39.2555
13	63096	1796.51	175.545	1805.07	5.58091	40.6405
14	50119	1816.26	161.959	1823.47	5.09566	42.0805
15	39811	1834.87	150.9	1841.07	4.70143	43.3856
16	31623	1850.82	142.031	1856.27	4.38823	44.6956
17	25119	1865.5	135.939	1870.44	4.16779	46.1056
18	19953	1881.19	131.885	1885.8	4.01029	47.5056
19	15849	1896.25	129.46	1900.67	3.9056	48.8957
20	12589	1911.27	128.841	1915.6	3.85654	50.2457
21	10000	1928.1	129.722	1932.46	3.84903	51.5657
22	7943.3	1943.66	131.988	1948.14	3.88481	52.8757
23	6309.6	1960.1	135.35	1964.77	3.95015	54.2658
24	5011.9	1978.42	139.718	1983.34	4.0396	55.6308
25	3981.1	1996.98	145.163	2002.25	4.15759	56.9158
26	3162.3	2016.88	151.505	2022.56	4.2959	58.1708
27	2511.9	2038.18	158.493	2044.33	4.44648	59.5809
28	1995.3	2059.19	166.29	2065.89	4.61692	60.8809
29	1584.9	2083.58	174.822	2090.9	4.79614	62.1209
30	1258.9	2107.42	184.102	2115.44	4.99264	63.4359
31	1000	2134.51	193.828	2143.29	5.18862	64.781
32	794.33	2162.17	204.349	2171.8	5.39905	66.196
33	630.96	2191.06	215.509	2201.63	5.61746	67.466
34	501.19	2222.58	227.155	2234.16	5.83555	68.761
35	398.11	2256.26	239.732	2268.96	6.06501	70.0211
36	316.23	2290.29	252.572	2304.18	6.29311	71.3711
37	251.19	2328.01	265.911	2343.15	6.51623	72.6811
38	199.53	2367.5	279.708	2383.97	6.73796	73.9911
39	158.49	2407.96	293.489	2425.78	6.94909	75.4112
40	125.89	2451.89	307.282	2471.07	7.14332	76.8812
41	100	2495.54	320.765	2516.07	7.32438	78.3412
42	79.433	2544.5	334.674	2566.42	7.493	79.8363
43	63.096	2594.79	348.374	2618.07	7.64677	81.3513
44	50.119	2646.72	361.938	2671.36	7.78687	82.7413
45	39.811	2698.77	375.452	2724.76	7.92014	91.9065
46	31.623	2752.13	389.863	2779.6	8.0628	93.5615
47	25.119	2807.4	404.284	2836.36	8.19463	95.1465
48	19.953	2863.64	422.186	2894.59	8.38671	97.0716
49	15.849	2920.44	440.762	2953.52	8.58249	99.0316
50	12.589	2980.47	462.444	3016.14	8.81956	101.167
51	10	3041.39	486.735	3080.09	9.09234	103.432
52	7.9433	3103.09	515.563	3145.63	9.43324	105.747
53	6.3096	3170.37	549.438	3217.63	9.83194	108.142
54	5.0119	3238.01	588.635	3291.08	10.3032	110.507
55	3.9811	3313.75	634.35	3373.92	10.837	114.132
56	3.1623	3393.44	687.2	3462.32	11.4481	116.592
57	2.5119	3477.76	748.207	3557.33	12.1416	119.162
58	1.9953	3569.87	817.115	3662.19	12.8925	121.797
59	1.5849	3672.8	896.436	3780.61	13.7163	125.947
60	1.2589	3783.84	984.651	3909.85	14.5863	128.797
61	1	3906.63	1088.6	4055.47	15.5707	133.962
62	0.79433	4043.26	1202.54	4218.3	16.5634	137.102
63	0.63096	4197.47	1325.82	4401.88	17.5294	140.712
64	0.50119	4355.16	1469.71	4596.46	18.6477	144.537
65	0.39811	4540.5	1628.08	4823.57	19.7262	148.788
66	0.31623	4737.39	1815.96	5073.52	20.9731	153.643
67	0.25119	4986.45	2015.48	5378.37	22.0082	159.078
68	0.19953	5243.07	2243.23	5702.79	23.1636	165.373
69	0.15849	5524.8	2476.87	6054.61	24.1476	172.573
70	0.12589	5800.17	2760.86	6423.73	25.4543	181.183
71	0.1	6186.54	3093.72	6916.96	26.5683	191.383