File: data/20200504/Z_p51_3.txt
Index	Frequency (Hz)	Z' (Ω)	-Z'' (Ω)	Z (Ω)	-Phase (°)	Time (s)
1	1000000	1055.09	401.512	1128.91	20.8342	680.363
2	794330	1093.15	368.804	1153.69	18.6432	682.699
3	630960	1143.86	338.366	1192.85	16.4788	684.955
4	501190	1193.78	308.75	1233.06	14.5008	687.631
5	398110	1228.12	270.099	1257.47	12.4036	689.912
6	316230	1271.85	243.083	1294.87	10.8202	692.168
7	251190	1305.45	216.334	1323.25	9.40933	694.359
8	199530	1334.04	191.951	1347.78	8.1879	696.56
9	158490	1357.35	170.064	1367.97	7.14142	698.696
10	125890	1376.58	150.66	1384.8	6.24588	700.787
11	100000	1393.98	133.939	1400.4	5.48836	707.827
12	79433	1407.92	119.466	1412.98	4.85009	709.933
13	63096	1420.42	107.149	1424.46	4.31393	712.169
14	50119	1430.92	96.5404	1434.17	3.85976	714.29
15	39811	1440.97	87.8082	1443.64	3.48712	716.746
16	31623	1449.75	80.5895	1451.98	3.18172	718.962
17	25119	1458.26	75.092	1460.19	2.9478	721.173
18	19953	1465.8	70.8294	1467.51	2.76646	723.714
19	15849	1472.85	67.7856	1474.41	2.63509	726.62
20	12589	1480.5	65.8595	1481.97	2.5471	729.086
21	10000	1487.59	64.856	1489	2.4964	731.832
22	7943.3	1494.46	64.9554	1495.87	2.48874	734.008
23	6309.6	1502.16	66.0881	1503.61	2.51913	736.124
24	5011.9	1509.73	67.9032	1511.26	2.57525	738.285
25	3981.1	1518.38	70.6506	1520.02	2.66407	740.301
26	3162.3	1526.89	74.4118	1528.7	2.79007	742.537
27	2511.9	1536.02	78.9372	1538.05	2.94188	744.813
28	1995.3	1545.44	84.5501	1547.75	3.1315	747.009
29	1584.9	1555.02	91.1541	1557.69	3.35481	749
30	1258.9	1566.95	98.9087	1570.07	3.61183	751.236
31	1000	1578.29	107.765	1581.96	3.90609	753.332
32	794.33	1591.26	118.129	1595.64	4.24564	755.443
33	630.96	1606.11	130.127	1611.38	4.63199	757.524
34	501.19	1622.03	143.763	1628.38	5.06498	759.75
35	398.11	1639.06	159.127	1646.77	5.54515	761.717
36	316.23	1659.2	176.807	1668.59	6.08257	763.773
37	251.19	1681.44	196.651	1692.9	6.67067	765.949
38	199.53	1705.04	219.174	1719.07	7.3249	767.94
39	158.49	1732	244.415	1749.16	8.03238	770.026
40	125.89	1761.55	272.72	1782.54	8.80053	772.157
41	100	1794.48	304.628	1820.16	9.63459	774.348
42	79.433	1830.84	340.196	1862.18	10.5263	776.504
43	63.096	1872.63	380.551	1910.9	11.4871	778.81
44	50.119	1918.47	425.4	1965.07	12.5024	781.001
45	39.811	1970	476.527	2026.81	13.5982	790.802
46	31.623	2029.08	534.127	2098.2	14.7478	793.328
47	25.119	2092.92	598.565	2176.83	15.9603	795.799
48	19.953	2165.44	671.686	2267.22	17.2331	798.625
49	15.849	2244.2	752.972	2367.15	18.5476	801.356
50	12.589	2333.45	845.914	2482.04	19.9264	804.072
51	10	2431.37	951.521	2610.93	21.373	807.113
52	7.9433	2540.99	1071.03	2757.49	22.8554	810.099
53	6.3096	2661.31	1205.77	2921.72	24.374	814.866
54	5.0119	2794.69	1361.48	3108.69	25.9737	817.868
55	3.9811	2940.12	1537.82	3318.01	27.6116	824.126
56	3.1623	3103.77	1744.22	3560.29	29.3346	827.252
57	2.5119	3278.94	1983.09	3831.98	31.1654	830.558
58	1.9953	3481.02	2264.12	4152.56	33.0407	833.964
59	1.5849	3696.83	2591.94	4514.94	35.0353	837.63
60	1.2589	3939.22	2980.05	4939.45	37.1078	841.246
61	1	4212.75	3440.89	5439.39	39.2413	845.257
62	0.79433	4522.95	3984.75	6027.88	41.3803	849.313
63	0.63096	4870.83	4630.78	6720.8	43.5528	853.684
64	0.50119	5275.63	5402.43	7551.07	45.6804	858.465
65	0.39811	5734.68	6317.93	8532.46	47.7705	863.506
66	0.31623	6253.42	7387.58	9678.93	49.7528	869.022
67	0.25119	6871.12	8701.1	11087	51.7024	875.149
68	0.19953	7621.43	10192.9	12727.2	53.2137	882.065
69	0.15849	8494.16	12029.1	14725.8	54.7728	890.216
70	0.12589	9475.54	14158.7	17036.8	56.208	899.477
71	0.1	10569.3	16668.7	19737.2	57.6219	910.503