File: data/20200504/Z_p52_3.txt
Index	Frequency (Hz)	Z' (Ω)	-Z'' (Ω)	Z (Ω)	-Phase (°)	Time (s)
1	1000000	1364.88	523.862	1461.96	20.9975	595.696
2	794330	1410.94	472.527	1487.96	18.5158	597.882
3	630960	1476.05	425.874	1536.26	16.094	600.004
4	501190	1540.04	381.477	1586.59	13.9124	602.26
5	398110	1585.06	327.225	1618.49	11.6644	604.476
6	316230	1636.38	289.014	1661.71	10.0162	606.572
7	251190	1676.23	252.037	1695.07	8.55094	608.658
8	199530	1706.79	218.22	1720.69	7.28597	610.814
9	158490	1719.69	181.456	1729.23	6.0234	612.875
10	125890	1743.27	158.202	1750.43	5.18541	614.841
11	100000	1761.51	137.638	1766.88	4.4678	617.112
12	79433	1776.41	120.085	1780.46	3.8673	619.068
13	63096	1787.93	105.025	1791.01	3.36174	621.144
14	50119	1798.29	92.2408	1800.65	2.93634	623.265
15	39811	1807.6	81.7994	1809.45	2.59104	625.396
16	31623	1814.14	73.0737	1815.61	2.30663	627.367
17	25119	1820.44	66.6856	1821.66	2.0979	629.403
18	19953	1826.16	61.4459	1827.19	1.92714	631.424
19	15849	1832.52	57.6038	1833.43	1.80045	633.38
20	12589	1838.2	54.9318	1839.02	1.71169	635.321
21	10000	1844.39	53.0781	1845.15	1.64841	637.367
22	7943.3	1850.93	52.2194	1851.67	1.61603	639.463
23	6309.6	1856.15	51.9121	1856.87	1.60201	641.479
24	5011.9	1862.26	52.2691	1863	1.60773	643.525
25	3981.1	1868.64	53.245	1869.4	1.63214	645.571
26	3162.3	1875.68	54.5238	1876.47	1.66505	647.587
27	2511.9	1881.53	56.4721	1882.38	1.71916	649.523
28	1995.3	1888.94	59.1337	1889.86	1.79307	651.539
29	1584.9	1896.09	62.1731	1897.11	1.87807	653.631
30	1258.9	1904.2	65.7495	1905.34	1.97756	655.607
31	1000	1911.46	70.3875	1912.76	2.10891	657.558
32	794.33	1920.06	75.7835	1921.55	2.26025	659.784
33	630.96	1930.12	82.4512	1931.88	2.44609	662.035
34	501.19	1939.66	90.0985	1941.75	2.65951	664.226
35	398.11	1950.18	99.3006	1952.71	2.91491	666.212
36	316.23	1961.1	109.843	1964.18	3.20584	668.258
37	251.19	1974.34	122.387	1978.13	3.54715	670.274
38	199.53	1988.96	136.875	1993.66	3.93674	672.315
39	158.49	2004.1	153.047	2009.94	4.36703	674.436
40	125.89	2022.49	171.648	2029.76	4.85105	676.462
41	100	2041.74	192.706	2050.81	5.39177	678.463
42	79.433	2066.17	216.551	2077.49	5.98322	680.604
43	63.096	2092.98	243.297	2107.07	6.63055	682.765
44	50.119	2123.06	273.14	2140.56	7.33105	702.803
45	39.811	2156.58	306.621	2178.27	8.09204	712.505
46	31.623	2195.07	344.351	2221.92	8.91559	714.911
47	25.119	2237.85	385.33	2270.78	9.76983	717.182
48	19.953	2284.03	432.445	2324.6	10.7212	719.773
49	15.849	2337.07	484.567	2386.77	11.7137	722.419
50	12.589	2392.53	542.03	2453.16	12.765	725.21
51	10	2456.93	608.86	2531.25	13.9182	728.246
52	7.9433	2526.68	684.046	2617.64	15.1485	731.227
53	6.3096	2601.95	769.736	2713.42	16.4798	734.383
54	5.0119	2684.75	867.461	2821.42	17.906	737.624
55	3.9811	2778.9	981.511	2947.14	19.4533	740.74
56	3.1623	2879.42	1113.46	3087.21	21.1413	744.021
57	2.5119	2990.54	1269.24	3248.74	22.9973	747.362
58	1.9953	3111.6	1448.68	3432.3	24.9654	752.589
59	1.5849	3251.46	1662.48	3651.83	27.0807	756.05
60	1.2589	3400.67	1912.48	3901.55	29.3527	759.561
61	1	3573.02	2213.66	4203.18	31.7802	763.548
62	0.79433	3769.25	2571.35	4562.79	34.3015	767.539
63	0.63096	3979.76	2983.42	4973.87	36.857	771.78
64	0.50119	4218.03	3498.01	5479.76	39.6689	776.336
65	0.39811	4501.88	4109.27	6095.32	42.3895	781.207
66	0.31623	4800.65	4834.2	6812.91	45.1995	786.758
67	0.25119	5177.61	5726.02	7719.78	47.8794	792.944
68	0.19953	5626.61	6748.36	8786.31	50.1795	799.9
69	0.15849	6175.64	8022.41	10124.1	52.4109	807.846
70	0.12589	6791.29	9517.92	11692.4	54.4911	817.048
71	0.1	7482	11342.8	13588.2	56.5902	827.974