File: data/20200504/Z_p51_1.txt
Index	Frequency (Hz)	Z' (Ω)	-Z'' (Ω)	Z (Ω)	-Phase (°)	Time (s)
1	1000000	1051.49	399.042	1124.66	20.7819	26.1482
2	794330	1089.33	367.266	1149.58	18.6315	27.5733
3	630960	1139.91	336.619	1188.57	16.452	29.0083
4	501190	1189.71	306.49	1228.56	14.4462	30.4833
5	398110	1223.57	268.489	1252.68	12.3763	31.9483
6	316230	1266.6	241.468	1289.41	10.7935	33.4784
7	251190	1301	214.946	1318.64	9.38142	35.1734
8	199530	1328.45	190.715	1342.07	8.1697	36.6884
9	158490	1351.93	169.026	1362.45	7.12649	38.0885
10	125890	1371.69	149.778	1379.85	6.23154	39.4085
11	100000	1387.75	133.2	1394.12	5.48261	42.5836
12	79433	1401.09	118.657	1406.11	4.84078	43.8336
13	63096	1413.69	106.386	1417.69	4.30365	45.1786
14	50119	1425.74	96.0541	1428.97	3.85428	46.6536
15	39811	1434.88	87.3519	1437.54	3.48373	47.9436
16	31623	1443.48	80.1622	1445.7	3.17861	49.2587
17	25119	1451.18	74.6166	1453.09	2.94344	50.6637
18	19953	1459.69	70.4214	1461.39	2.76203	51.9637
19	15849	1466.78	67.4052	1468.33	2.63114	53.2787
20	12589	1473.78	65.5689	1475.24	2.54742	54.6838
21	10000	1481.64	64.5543	1483.05	2.49477	56.0438
22	7943.3	1488.99	64.767	1490.4	2.49064	57.3388
23	6309.6	1496.02	65.9096	1497.47	2.52263	58.7188
24	5011.9	1503.05	67.7577	1504.58	2.58115	60.0539
25	3981.1	1511.69	70.5578	1513.34	2.67233	61.3489
26	3162.3	1519.87	74.2281	1521.69	2.79601	62.6789
27	2511.9	1528.53	78.8916	1530.57	2.95456	64.0389
28	1995.3	1538.86	84.493	1541.18	3.14274	65.484
29	1584.9	1548.17	91.1021	1550.85	3.36769	66.769
30	1258.9	1559.22	98.9382	1562.35	3.63076	68.069
31	1000	1572.01	107.983	1575.71	3.92956	69.474
32	794.33	1585.19	118.457	1589.61	4.27362	70.8991
33	630.96	1599.47	130.448	1604.78	4.66255	72.2241
34	501.19	1614.88	144.038	1621.29	5.09695	73.5991
35	398.11	1633.86	159.756	1641.66	5.58452	75.0141
36	316.23	1652.76	177.454	1662.26	6.12827	76.3592
37	251.19	1674.67	197.61	1686.29	6.72972	77.7142
38	199.53	1698.2	220.055	1712.4	7.38334	79.0192
39	158.49	1725.21	245.463	1742.58	8.09773	80.4192
40	125.89	1755.17	273.948	1776.42	8.87117	81.8293
41	100	1787.41	305.785	1813.38	9.708	83.2193
42	79.433	1825.05	341.966	1856.81	10.6127	84.6993
43	63.096	1866.26	382.315	1905.02	11.5772	86.2944
44	50.119	1912.85	427.718	1960.09	12.6042	87.8344
45	39.811	1966.45	479.382	2024.04	13.7004	96.9846
46	31.623	2023.81	536.275	2093.65	14.8413	98.6996
47	25.119	2089.11	601.389	2173.95	16.0594	100.33
48	19.953	2160.92	675.815	2264.13	17.3668	102.35
49	15.849	2239.93	758.012	2364.71	18.6963	104.38
50	12.589	2329.78	851.959	2480.67	20.0866	106.445
51	10	2428.38	957.541	2610.35	21.52	108.8
52	7.9433	2538.19	1078.13	2757.68	23.0139	111.115
53	6.3096	2660.99	1215.13	2925.31	24.5437	113.56
54	5.0119	2793.18	1370.27	3111.19	26.1315	115.935
55	3.9811	2940.16	1550.22	3323.81	27.8008	120.38
56	3.1623	3103.7	1758.51	3567.26	29.5352	122.865
57	2.5119	3282.2	1999.54	3843.3	31.3501	125.59
58	1.9953	3480.71	2281.97	4162.06	33.249	128.24
59	1.5849	3700.82	2614.78	4531.35	35.2428	131
60	1.2589	3947.5	3007.17	4962.44	37.2998	133.855
61	1	4222.87	3472.44	5467.22	39.4303	139.015
62	0.79433	4542.59	4021.95	6067.23	41.5212	142.215
63	0.63096	4894.22	4669.19	6764.23	43.6521	145.815
64	0.50119	5304.32	5446.45	7602.6	45.7575	149.576
65	0.39811	5764.85	6370.47	8591.65	47.857	153.831
66	0.31623	6318.59	7460.47	9776.67	49.7373	158.651
67	0.25119	6916.69	8761.76	11162.8	51.7118	164.081
68	0.19953	7648.7	10278.5	12812.1	53.3455	170.421
69	0.15849	8487.08	12109.3	14787.4	54.9744	177.796
70	0.12589	9529.43	14343.7	17220.7	56.4014	186.506
71	0.1	10706.4	16778.2	19903.1	57.4576	196.766