File: data/20200504/Z_p55_2.txt
Index	Frequency (Hz)	Z' (Ω)	-Z'' (Ω)	Z (Ω)	-Phase (°)	Time (s)
1	1000000	1671.73	803.034	1854.6	25.6578	359.577
2	794330	1758.96	733.009	1905.59	22.6229	360.982
3	630960	1873.57	676.32	1991.9	19.8486	362.347
4	501190	1981.12	620.697	2076.08	17.3961	363.837
5	398110	2073.47	551.776	2145.63	14.9018	365.307
6	316230	2163.56	500.605	2220.72	13.0279	366.832
7	251190	2200.44	421.449	2240.43	10.8425	369.267
8	199530	2272.48	381.76	2304.33	9.53622	370.592
9	158490	2332.75	344.404	2358.04	8.39839	372.017
10	125890	2379.41	306.266	2399.04	7.33452	373.317
11	100000	2416.96	272.301	2432.25	6.42799	374.702
12	79433	2450.76	242.194	2462.69	5.64388	376.148
13	63096	2477.26	215.227	2486.59	4.96545	377.643
14	50119	2501.43	191.899	2508.78	4.3869	378.958
15	39811	2520.93	171.663	2526.77	3.89554	380.263
16	31623	2537.72	154.466	2542.41	3.48319	381.623
17	25119	2553.7	141.034	2557.59	3.16109	383.018
18	19953	2568.98	130.075	2572.27	2.89858	384.268
19	15849	2581.75	121.221	2584.6	2.68824	385.578
20	12589	2594.76	114.745	2597.29	2.53209	386.923
21	10000	2606.7	110.073	2609.02	2.418	388.328
22	7943.3	2617.84	106.955	2620.03	2.33958	389.748
23	6309.6	2631.39	105.488	2633.5	2.29565	391.028
24	5011.9	2641.91	105.26	2644	2.28161	392.403
25	3981.1	2655.33	106.492	2657.47	2.29662	393.743
26	3162.3	2668.25	108.747	2670.46	2.33385	395.118
27	2511.9	2680.12	112.501	2682.48	2.40363	396.533
28	1995.3	2694.68	117.61	2697.25	2.49909	397.928
29	1584.9	2708.56	123.858	2711.39	2.61821	399.093
30	1258.9	2724.26	131.642	2727.44	2.76651	400.373
31	1000	2739.5	141.207	2743.14	2.95068	401.693
32	794.33	2756.86	152.529	2761.07	3.16678	403.008
33	630.96	2773.74	166.102	2778.71	3.42699	404.368
34	501.19	2794.89	182.015	2800.81	3.72609	405.783
35	398.11	2817.15	200.479	2824.27	4.07054	407.203
36	316.23	2840.01	221.905	2848.67	4.46775	408.533
37	251.19	2867.93	246.627	2878.52	4.91503	409.908
38	199.53	2895.66	274.674	2908.66	5.4187	411.118
39	158.49	2929.81	306.877	2945.84	5.97951	412.483
40	125.89	2966.72	342.627	2986.44	6.58792	414.003
41	100	3008.44	383.04	3032.73	7.25596	415.368
42	79.433	3056.56	428.913	3086.5	7.9879	416.778
43	63.096	3110.62	478.936	3147.28	8.75298	418.293
44	50.119	3171.4	535.603	3216.31	9.58597	428.113
45	39.811	3239.71	596.805	3294.22	10.4378	437.199
46	31.623	3313.61	664.58	3379.6	11.3408	438.969
47	25.119	3398.99	739.726	3478.55	12.2779	440.644
48	19.953	3492.76	823.771	3588.58	13.2708	442.554
49	15.849	3596.67	915.853	3711.45	14.2861	444.479
50	12.589	3709.88	1017.92	3847	15.3433	446.484
51	10	3835.02	1131.18	3998.36	16.4339	448.854
52	7.9433	3969.5	1259.02	4164.38	17.5977	451.109
53	6.3096	4119.92	1403.43	4352.39	18.8112	453.404
54	5.0119	4279.26	1567.87	4557.44	20.1222	455.874
55	3.9811	4456.13	1757.46	4790.17	21.5238	458.294
56	3.1623	4648.41	1974.12	5050.23	23.0103	460.834
57	2.5119	4861.11	2229.47	5347.98	24.6378	463.379
58	1.9953	5093.51	2523.73	5684.45	26.3574	466.069
59	1.5849	5346.98	2866.63	6066.94	28.1966	468.884
60	1.2589	5630.76	3272.28	6512.55	30.1627	471.769
61	1	5957.82	3752.06	7040.85	32.2015	476.844
62	0.79433	6329.2	4312.32	7658.64	34.2681	479.944
63	0.63096	6729.44	4971.29	8366.54	36.4547	483.48
64	0.50119	7198.74	5754.23	9215.91	38.6367	487.37
65	0.39811	7733.08	6684.68	10221.8	40.841	491.535
66	0.31623	8370.14	7756.44	11411.5	42.8207	496.305
67	0.25119	9053.98	9063.13	12810.7	45.0289	501.775
68	0.19953	9890.95	10574.6	14479.4	46.9132	508.005
69	0.15849	10885.6	12359.7	16469.9	48.6285	515.315
70	0.12589	12146.5	14411.1	18847.2	49.874	523.92
71	0.1	13388.8	16813.8	21493.3	51.4698	534.095