File: data/20200504/Z_p52_1.txt
Index	Frequency (Hz)	Z' (Ω)	-Z'' (Ω)	Z (Ω)	-Phase (°)	Time (s)
1	1000000	1363.64	523.51	1460.68	21.0021	22.9912
2	794330	1409.78	471.796	1486.63	18.5033	24.4162
3	630960	1475.17	425.184	1535.23	16.0784	25.8213
4	501190	1538.46	380.583	1584.83	13.8949	27.3463
5	398110	1582.74	326.515	1616.07	11.6564	28.7763
6	316230	1633.3	287.877	1658.48	9.99597	30.2163
7	251190	1672.96	251.29	1691.73	8.54237	31.4764
8	199530	1704.42	217.999	1718.31	7.28865	32.8514
9	158490	1717.18	180.844	1726.67	6.01192	34.2564
10	125890	1740.08	157.693	1747.21	5.17822	35.5914
11	100000	1758.2	137.139	1763.54	4.46003	37.0215
12	79433	1773.43	119.647	1777.47	3.85969	38.3615
13	63096	1785.94	104.712	1789	3.35548	39.7065
14	50119	1795.68	92.1222	1798.04	2.93682	41.0665
15	39811	1804.04	81.5354	1805.88	2.58778	42.3266
16	31623	1811.58	72.7066	1813.04	2.29829	43.6216
17	25119	1816.92	66.3205	1818.13	2.09046	44.9216
18	19953	1823.93	61.3505	1824.96	1.9265	46.1966
19	15849	1828.8	57.52	1829.7	1.80149	47.4567
20	12589	1835.59	54.7989	1836.41	1.70997	48.9467
21	10000	1840.54	52.882	1841.3	1.64576	50.2517
22	7943.3	1847.54	52.0811	1848.27	1.61471	51.6217
23	6309.6	1852.78	51.784	1853.51	1.60096	52.8768
24	5011.9	1858.51	52.1065	1859.24	1.60596	54.1368
25	3981.1	1864.34	53.073	1865.09	1.63063	55.3868
26	3162.3	1871.36	54.4512	1872.16	1.66667	56.6968
27	2511.9	1878.41	56.4779	1879.26	1.72218	57.9618
28	1995.3	1885.54	58.9284	1886.46	1.79007	59.2169
29	1584.9	1892.37	62.0428	1893.39	1.87781	60.3669
30	1258.9	1899.84	65.8823	1900.99	1.98609	61.7169
31	1000	1908.24	70.4238	1909.54	2.11355	62.9969
32	794.33	1916.44	75.9042	1917.94	2.26812	64.377
33	630.96	1925.7	82.3822	1927.46	2.44965	65.617
34	501.19	1935.28	90.1009	1937.38	2.6656	66.887
35	398.11	1946.71	99.2687	1949.24	2.91916	68.152
36	316.23	1957.78	109.927	1960.86	3.21371	69.4121
37	251.19	1970.68	122.474	1974.49	3.55624	70.7021
38	199.53	1984.29	136.681	1989	3.94039	71.9721
39	158.49	2000.33	153.309	2006.2	4.38267	73.2971
40	125.89	2019.25	171.866	2026.55	4.86492	74.6872
41	100	2037.91	192.842	2047.01	5.40566	76.0022
42	79.433	2062.52	216.976	2073.9	6.0054	77.3622
43	63.096	2088.14	243.612	2102.3	6.6543	78.7772
44	50.119	2119.46	273.715	2137.06	7.35866	88.6324
45	39.811	2152.33	307.408	2174.17	8.12835	97.6676
46	31.623	2190.25	344.222	2217.13	8.93163	99.2476
47	25.119	2231.64	385.099	2264.62	9.79074	100.848
48	19.953	2280.34	433.374	2321.16	10.7606	102.668
49	15.849	2332.35	484.851	2382.22	11.7434	104.548
50	12.589	2389.18	543.111	2450.13	12.8069	106.463
51	10	2453.7	609.59	2528.29	13.9519	108.733
52	7.9433	2522.19	684.995	2613.55	15.1943	110.978
53	6.3096	2599.23	769.015	2710.61	16.4815	113.363
54	5.0119	2682.38	868.179	2819.37	17.9347	115.728
55	3.9811	2775.52	982.758	2944.38	19.498	118.093
56	3.1623	2875.91	1114.55	3084.33	21.1836	120.498
57	2.5119	2989.07	1270.1	3247.72	23.0214	123.093
58	1.9953	3111.98	1451.73	3433.94	25.0089	125.723
59	1.5849	3247.02	1663.16	3648.18	27.122	131.038
60	1.2589	3398.37	1913.3	3899.95	29.3798	133.838
61	1	3570.02	2214.71	4201.19	31.814	137.108
62	0.79433	3761.18	2567.17	4553.78	34.3152	140.288
63	0.63096	3981.94	2984.42	4976.2	36.8511	143.753
64	0.50119	4214.48	3493.93	5474.43	39.6598	147.504
65	0.39811	4483.16	4094.74	6071.71	42.4073	151.704
66	0.31623	4801.27	4840	6817.47	45.2302	156.549
67	0.25119	5180.93	5692.47	7697.16	47.6935	161.974
68	0.19953	5628.61	6741.11	8782.02	50.1392	168.114
69	0.15849	6127.83	8003.95	10080.4	52.5623	175.319
70	0.12589	6754.51	9574.67	11717.4	54.7987	183.849
71	0.1	7562.14	11321.2	13614.5	56.2586	194.049