File: data/20200504/Z_p55_3.txt
Index	Frequency (Hz)	Z' (Ω)	-Z'' (Ω)	Z (Ω)	-Phase (°)	Time (s)
1	1000000	1672.71	802.92	1855.43	25.6416	601.819
2	794330	1760.99	735.766	1908.52	22.6758	604
3	630960	1875.63	676.658	1993.95	19.8376	606.281
4	501190	1983.68	623.593	2079.39	17.4511	608.512
5	398110	2074.86	552.728	2147.21	14.9168	610.948
6	316230	2165.7	500.968	2222.88	13.0246	613.254
7	251190	2201.99	422.145	2242.09	10.8525	615.47
8	199530	2276.15	384.198	2308.34	9.58082	617.571
9	158490	2333.68	343.792	2358.87	8.38038	619.687
10	125890	2382.57	307.072	2402.27	7.34397	621.643
11	100000	2420.09	273.051	2435.45	6.43727	623.824
12	79433	2453.36	242.677	2465.33	5.6491	625.75
13	63096	2481.97	215.837	2491.34	4.97004	627.996
14	50119	2504.38	192.525	2511.77	4.39599	630.017
15	39811	2525.39	172.209	2531.26	3.90101	632.238
16	31623	2541.54	154.91	2546.26	3.48794	634.294
17	25119	2557.84	141.245	2561.74	3.16069	636.22
18	19953	2572.13	130.139	2575.42	2.89646	638.301
19	15849	2585.77	121.422	2588.62	2.68851	640.317
20	12589	2598.22	114.84	2600.76	2.5308	642.328
21	10000	2610.12	110.172	2612.44	2.41699	644.359
22	7943.3	2621.64	107.156	2623.83	2.34058	646.475
23	6309.6	2635.07	105.613	2637.18	2.29517	648.456
24	5011.9	2646.82	105.488	2648.92	2.28229	652.118
25	3981.1	2659.76	106.711	2661.9	2.2975	654.014
26	3162.3	2672.08	109.042	2674.3	2.33683	656.061
27	2511.9	2685.49	112.671	2687.85	2.40246	658.262
28	1995.3	2699.5	117.628	2702.06	2.49503	660.278
29	1584.9	2712.57	123.916	2715.39	2.61557	662.384
30	1258.9	2728.19	131.696	2731.37	2.76366	664.35
31	1000	2743.93	141.257	2747.56	2.94696	666.371
32	794.33	2760.77	152.709	2764.99	3.16602	668.457
33	630.96	2780.2	166.092	2785.16	3.41885	670.463
34	501.19	2799.11	181.767	2805.01	3.71541	672.464
35	398.11	2821.71	200.43	2828.82	4.06299	674.505
36	316.23	2844.37	221.807	2853.01	4.45896	676.491
37	251.19	2870.98	246.151	2881.52	4.90041	678.612
38	199.53	2900.12	274.509	2913.09	5.40717	680.673
39	158.49	2933.25	306.33	2949.2	5.962	682.649
40	125.89	2970.99	342.398	2990.66	6.57416	685.085
41	100	3013.23	382.817	3037.45	7.24038	687.206
42	79.433	3058.56	427.811	3088.34	7.96248	689.412
43	63.096	3112.56	478.18	3149.08	8.734	691.493
44	50.119	3175.43	534.261	3220.06	9.55047	702.86
45	39.811	3241.6	595.42	3295.83	10.4081	712.642
46	31.623	3319.71	663.641	3385.4	11.3049	714.908
47	25.119	3403.83	738.341	3482.99	12.2387	717.244
48	19.953	3496.47	821.786	3591.75	13.2263	719.78
49	15.849	3600.64	914.096	3714.86	14.2448	722.386
50	12.589	3713.77	1015.16	3850.02	15.2884	725.032
51	10	3836.15	1127.95	3998.54	16.385	727.933
52	7.9433	3972.37	1255.86	4166.17	17.5442	730.844
53	6.3096	4120.27	1399.4	4351.43	18.7595	733.875
54	5.0119	4282.33	1564.33	4559.11	20.0672	736.936
55	3.9811	4456.46	1751.13	4788.16	21.452	739.982
56	3.1623	4647.49	1968.19	5047.07	22.9525	743.163
57	2.5119	4858.29	2221.8	5342.23	24.5756	746.384
58	1.9953	5089.05	2514.57	5676.4	26.2946	749.925
59	1.5849	5347.8	2859.49	6064.29	28.1336	753.241
60	1.2589	5630.98	3263.58	6508.37	30.0955	756.927
61	1	5951.55	3742.89	7030.66	32.1655	763.295
62	0.79433	6315.47	4302.22	7641.61	34.2634	767.091
63	0.63096	6736.98	4965.52	8369.18	36.3922	771.272
64	0.50119	7184.39	5729.9	9189.51	38.5741	775.823
65	0.39811	7708.18	6667.38	10191.7	40.859	780.664
66	0.31623	8335.83	7734.57	11371.4	42.8573	786.22
67	0.25119	9030.53	9039.27	12777.3	45.0277	792.266
68	0.19953	9944.94	10554.2	14501.4	46.7023	799.242
69	0.15849	10934.5	12374.3	16513.2	48.5348	807.148
70	0.12589	12134.1	14418.1	18844.6	49.9165	816.364
71	0.1	13442.8	16775.2	21496.9	51.2931	827.231