File: data/20200504/Z_p55_1.txt
Index	Frequency (Hz)	Z' (Ω)	-Z'' (Ω)	Z (Ω)	-Phase (°)	Time (s)
1	1000000	1672.12	804.873	1855.75	25.7038	48.1827
2	794330	1760.22	733.086	1906.78	22.6104	49.5827
3	630960	1871.55	676.055	1989.92	19.8611	51.0977
4	501190	1978.27	621.974	2073.74	17.4533	52.6927
5	398110	2072.55	551.818	2144.75	14.9092	54.1828
6	316230	2162.39	499.929	2219.43	13.0176	55.7178
7	251190	2199.51	420.59	2239.36	10.8254	57.0078
8	199530	2273.02	382.393	2304.96	9.54953	58.3829
9	158490	2330.29	343.202	2355.42	8.37824	59.6679
10	125890	2378.5	306.325	2398.14	7.3387	60.9879
11	100000	2417.13	272.393	2432.43	6.42968	62.3829
12	79433	2450.33	242.165	2462.27	5.64419	63.6829
13	63096	2477.08	215.22	2486.41	4.96565	65.108
14	50119	2500.51	192.035	2507.88	4.39158	66.623
15	39811	2520.96	171.862	2526.81	3.9	68.018
16	31623	2539.01	154.724	2543.72	3.48722	69.4081
17	25119	2552.49	141.004	2556.38	3.1619	70.7281
18	19953	2567.57	130.114	2570.86	2.90104	71.9981
19	15849	2580.81	121.436	2583.66	2.69397	73.2731
20	12589	2593.99	114.901	2596.54	2.53627	74.6732
21	10000	2603.92	109.957	2606.24	2.41801	75.9682
22	7943.3	2617.27	107.211	2619.47	2.34568	77.2282
23	6309.6	2628.53	105.705	2630.65	2.30288	78.5582
24	5011.9	2641.51	105.554	2643.61	2.28831	79.9682
25	3981.1	2654.72	106.913	2656.87	2.30621	81.3333
26	3162.3	2666.72	109.359	2668.96	2.34831	82.5983
27	2511.9	2680.01	113.037	2682.39	2.41518	83.9333
28	1995.3	2692.89	117.958	2695.47	2.50816	85.2183
29	1584.9	2707.6	124.585	2710.47	2.63449	86.4584
30	1258.9	2722.78	132.358	2725.99	2.78303	87.8084
31	1000	2737.24	142.127	2740.93	2.97232	89.1734
32	794.33	2754.62	153.604	2758.9	3.19163	90.6834
33	630.96	2773.2	167.355	2778.25	3.45345	92.0185
34	501.19	2792.91	183.401	2798.92	3.75703	93.3635
35	398.11	2815.15	202.046	2822.39	4.10515	94.5585
36	316.23	2839.31	223.999	2848.13	4.51085	95.9285
37	251.19	2866.21	248.663	2876.97	4.95838	97.3736
38	199.53	2896.43	277.703	2909.71	5.47665	98.7436
39	158.49	2928.82	310.057	2945.19	6.04306	100.044
40	125.89	2965.86	346.367	2986.02	6.66109	101.404
41	100	3007.97	387.508	3032.83	7.34081	102.834
42	79.433	3056.29	433.53	3086.88	8.07346	104.264
43	63.096	3110.62	484.587	3148.14	8.85463	105.714
44	50.119	3171.06	541.407	3216.94	9.68891	107.049
45	39.811	3242.06	604.187	3297.87	10.5565	116.244
46	31.623	3316.79	672.772	3384.34	11.4662	117.889
47	25.119	3402.49	748.435	3483.83	12.4056	119.624
48	19.953	3496.98	834.194	3595.1	13.417	121.604
49	15.849	3602.47	927.062	3719.84	14.4314	123.634
50	12.589	3718.48	1029.87	3858.46	15.4807	125.734
51	10	3843.4	1144.82	4010.28	16.587	127.989
52	7.9433	3981.51	1273.91	4180.34	17.7424	130.274
53	6.3096	4130.36	1418.93	4367.29	18.9595	132.754
54	5.0119	4294.99	1585.42	4578.26	20.2607	135.089
55	3.9811	4471.95	1775.36	4811.47	21.653	137.669
56	3.1623	4664.6	1994.26	5073.02	23.1482	140.084
57	2.5119	4880.74	2250.13	5374.45	24.7507	142.769
58	1.9953	5113.26	2544.46	5711.36	26.4559	145.334
59	1.5849	5374.21	2892.63	6103.23	28.2911	148.185
60	1.2589	5658.72	3298.25	6549.77	30.2362	151.11
61	1	5990.76	3783.81	7085.65	32.2768	156.205
62	0.79433	6361.72	4344.31	7703.54	34.3285	159.345
63	0.63096	6772.77	5002.05	8419.68	36.4478	162.98
64	0.50119	7235.62	5791.45	9267.96	38.674	166.86
65	0.39811	7764.87	6707.65	10260.9	40.8219	171.1
66	0.31623	8393.99	7817.25	11470.3	42.9625	175.89
67	0.25119	9117.32	9063.1	12855.6	44.8291	181.335
68	0.19953	9980.39	10561.1	14530.8	46.6194	187.53
69	0.15849	10945.4	12343.3	16497.2	48.4351	194.83
70	0.12589	12149.7	14502.3	18919.1	50.0444	203.421
71	0.1	13587.6	16803.7	21609.8	51.0408	213.686