File: data/20200504/Z_p52_2.txt
Index	Frequency (Hz)	Z' (Ω)	-Z'' (Ω)	Z (Ω)	-Phase (°)	Time (s)
1	1000000	1363.24	524.14	1460.52	21.0309	315.997
2	794330	1410.16	470.794	1486.68	18.462	317.382
3	630960	1475.84	425.632	1535.99	16.0876	318.737
4	501190	1539.02	380.712	1585.41	13.8945	320.223
5	398110	1583.69	326.936	1617.09	11.6642	321.578
6	316230	1635.24	288.612	1660.52	10.0093	322.923
7	251190	1673.58	251.363	1692.35	8.54168	324.198
8	199530	1704.38	217.928	1718.25	7.28653	325.628
9	158490	1717.33	180.651	1726.81	6.00504	327.008
10	125890	1740.82	157.889	1747.96	5.18246	328.283
11	100000	1759.84	137.328	1765.19	4.46198	329.653
12	79433	1774.36	119.81	1778.4	3.86293	330.923
13	63096	1785.97	104.669	1789.03	3.35406	332.273
14	50119	1795.67	92.0294	1798.03	2.93388	333.638
15	39811	1804.58	81.5439	1806.42	2.58728	334.898
16	31623	1811.82	72.854	1813.28	2.30265	336.203
17	25119	1818.79	66.4533	1820	2.09249	337.473
18	19953	1824.82	61.2856	1825.85	1.92353	338.728
19	15849	1830.73	57.5639	1831.64	1.80096	339.978
20	12589	1836.11	54.7403	1836.93	1.70766	341.258
21	10000	1842.03	53.0836	1842.79	1.6507	342.543
22	7943.3	1848.12	52.1104	1848.86	1.6151	343.833
23	6309.6	1853.76	51.8626	1854.49	1.60254	345.133
24	5011.9	1860.72	52.2316	1861.46	1.6079	347.243
25	3981.1	1866.14	53.1014	1866.9	1.62992	348.458
26	3162.3	1873.48	54.5933	1874.27	1.66913	349.713
27	2511.9	1880.19	56.4595	1881.03	1.72	350.973
28	1995.3	1887.19	59.0472	1888.12	1.79211	352.218
29	1584.9	1893.89	62.0459	1894.9	1.8764	353.513
30	1258.9	1901.41	65.6729	1902.55	1.97815	354.823
31	1000	1909.81	70.4072	1911.1	2.11132	356.093
32	794.33	1918.3	75.8181	1919.8	2.26336	357.458
33	630.96	1926.97	82.3763	1928.73	2.44786	358.693
34	501.19	1936.47	90.0328	1938.56	2.66195	360.018
35	398.11	1947.42	99.1354	1949.94	2.91419	361.228
36	316.23	1959.51	109.91	1962.59	3.2104	362.503
37	251.19	1971.89	122.202	1975.67	3.54621	363.808
38	199.53	1985.72	136.685	1990.42	3.9377	365.063
39	158.49	2001.79	152.965	2007.63	4.3697	366.343
40	125.89	2020.3	171.587	2027.58	4.85454	367.718
41	100	2039.65	192.626	2048.72	5.39506	369.083
42	79.433	2064.15	216.499	2075.47	5.98761	370.453
43	63.096	2090.06	243.213	2104.17	6.63744	371.868
44	50.119	2120.77	273.153	2138.28	7.33925	381.754
45	39.811	2153.97	306.504	2175.67	8.09868	390.769
46	31.623	2192.56	343.481	2219.3	8.90343	392.429
47	25.119	2234.94	385.484	2267.94	9.78614	393.979
48	19.953	2281.23	432.092	2321.8	10.7254	395.944
49	15.849	2332.87	484.096	2382.57	11.7231	397.834
50	12.589	2390.18	541.976	2450.86	12.7758	399.834
51	10	2454.04	607.811	2528.19	13.911	402.069
52	7.9433	2523.83	683.144	2614.65	15.1458	404.324
53	6.3096	2600.33	769.31	2711.75	16.4809	406.704
54	5.0119	2683.4	867.251	2820.07	17.9103	409.109
55	3.9811	2775.71	980.819	2943.9	19.4613	411.474
56	3.1623	2876.53	1112.42	3084.13	21.1426	413.939
57	2.5119	2988.48	1268.18	3246.43	22.9942	416.519
58	1.9953	3114.21	1450.93	3435.63	24.9812	419.119
59	1.5849	3250.68	1664.31	3651.97	27.1119	421.829
60	1.2589	3399.35	1912.67	3900.5	29.3647	427.72
61	1	3566.63	2209.85	4195.74	31.782	430.875
62	0.79433	3762.62	2565.69	4554.12	34.2896	434.05
63	0.63096	3971.77	2985.73	4968.86	36.9336	437.54
64	0.50119	4216.73	3496.43	5477.76	39.6649	441.39
65	0.39811	4485.39	4104.53	6079.96	42.4612	445.605
66	0.31623	4819.06	4836.87	6827.79	45.1057	450.39
67	0.25119	5167.4	5718.43	7707.3	47.8978	455.785
68	0.19953	5604.6	6763.79	8784.1	50.3543	462.03
69	0.15849	6122.6	8047.37	10111.7	52.7354	469.285
70	0.12589	6797.5	9551.71	11723.5	54.5623	477.82
71	0.1	7487.49	11333.7	13583.6	56.5497	487.956