File: data/20200504/Z_p50_2.txt
Index	Frequency (Hz)	Z' (Ω)	-Z'' (Ω)	Z (Ω)	-Phase (°)	Time (s)
1	1000000	1644.34	807.224	1831.79	26.1469	223.147
2	794330	1735.77	739.085	1886.57	23.0641	224.662
3	630960	1853.27	682.232	1974.85	20.2098	226.187
4	501190	1962.45	624.756	2059.5	17.6591	227.667
5	398110	2055.35	558.425	2129.86	15.2	229.167
6	316230	2146.66	505.277	2205.33	13.2451	230.582
7	251190	2184.11	424.885	2225.05	11.0085	232.062
8	199530	2257.09	384.211	2289.56	9.66052	233.627
9	158490	2314.97	343.778	2340.36	8.44681	235.237
10	125890	2362.18	305.698	2381.88	7.37386	236.652
11	100000	2401.32	271.016	2416.57	6.43923	238.027
12	79433	2432.23	240.6	2444.1	5.64941	239.402
13	63096	2458.58	213.792	2467.86	4.96979	240.972
14	50119	2482.1	190.631	2489.41	4.39182	242.592
15	39811	2501.77	171.014	2507.61	3.9105	245.002
16	31623	2519.48	154.255	2524.2	3.50356	246.297
17	25119	2535.76	140.953	2539.67	3.18158	247.757
18	19953	2550.15	130.037	2553.46	2.9191	249.237
19	15849	2562.67	121.438	2565.55	2.71307	250.692
20	12589	2576.58	114.756	2579.13	2.55017	252.132
21	10000	2588.95	109.982	2591.29	2.43254	253.612
22	7943.3	2602.54	106.208	2604.7	2.3369	255.042
23	6309.6	2614.86	104.073	2616.93	2.27922	256.507
24	5011.9	2627.16	102.898	2629.17	2.24296	258.022
25	3981.1	2639.21	102.603	2641.2	2.22633	259.497
26	3162.3	2652.51	103.378	2654.53	2.23189	260.987
27	2511.9	2665.55	104.948	2667.62	2.25467	262.402
28	1995.3	2679.58	107.173	2681.73	2.29038	263.677
29	1584.9	2692.86	110.122	2695.11	2.34176	264.982
30	1258.9	2707.14	114.152	2709.54	2.41457	266.422
31	1000	2722.45	118.767	2725.04	2.49795	267.943
32	794.33	2738.09	124.3	2740.91	2.59925	269.398
33	630.96	2755.97	131.161	2759.09	2.72475	270.678
34	501.19	2770.53	138.751	2774.01	2.86704	272.183
35	398.11	2790.16	147.743	2794.07	3.03106	273.613
36	316.23	2809.66	158.255	2814.11	3.2238	275.043
37	251.19	2831.12	170.098	2836.23	3.43829	276.503
38	199.53	2851.09	183.286	2856.98	3.67827	277.948
39	158.49	2875.86	198.376	2882.69	3.94599	279.353
40	125.89	2902.02	215.086	2909.98	4.23877	280.928
41	100	2928.68	233.228	2937.96	4.55319	282.493
42	79.433	2959.69	253.885	2970.56	4.90287	284.078
43	63.096	2993.72	276.358	3006.45	5.27418	285.683
44	50.119	3029.32	301.652	3044.3	5.68662	287.053
45	39.811	3068.57	329.161	3086.18	6.12262	296.398
46	31.623	3111.81	360.181	3132.58	6.6024	298.223
47	25.119	3158.44	394.08	3182.93	7.11206	300.003
48	19.953	3209.03	433.034	3238.11	7.68521	301.918
49	15.849	3264.94	475.516	3299.38	8.28649	304.068
50	12.589	3323.01	522.14	3363.78	8.92981	307.088
51	10	3390.32	574.905	3438.72	9.62425	309.488
52	7.9433	3463.32	634.496	3520.96	10.3817	311.888
53	6.3096	3542.32	700.521	3610.92	11.1863	314.343
54	5.0119	3625.38	774.042	3707.09	12.0521	316.893
55	3.9811	3719.24	858.761	3817.09	13.0016	319.413
56	3.1623	3823.34	954.36	3940.65	14.0154	322.069
57	2.5119	3933.96	1063.4	4075.15	15.1263	324.774
58	1.9953	4058.19	1186.94	4228.21	16.3031	327.519
59	1.5849	4193.99	1329.6	4399.7	17.5899	330.394
60	1.2589	4342.7	1492.09	4591.88	18.962	333.484
61	1	4512.39	1681.16	4815.39	20.4337	337.019
62	0.79433	4700.66	1901	5070.5	22.019	340.344
63	0.63096	4913.68	2142.27	5360.37	23.5563	343.979
64	0.50119	5135.66	2428.03	5680.7	25.3038	347.839
65	0.39811	5403.96	2764.22	6069.9	27.0906	352.209
66	0.31623	5690.82	3148.68	6503.82	28.9554	357.134
67	0.25119	6032.81	3631.8	7041.64	31.0482	362.734
68	0.19953	6402.01	4138.91	7623.41	32.8827	369.249
69	0.15849	6836.74	4745.64	8322.39	34.766	376.755
70	0.12589	7384.69	5454.38	9180.63	36.4498	385.515
71	0.1	7940.27	6185.3	10065.1	37.9178	395.85