File: data/20200504/Z_p53_2.txt
Index	Frequency (Hz)	Z' (Ω)	-Z'' (Ω)	Z (Ω)	-Phase (°)	Time (s)
1	1000000	1456.23	574.309	1565.39	21.5232	346.503
2	794330	1506.77	517.061	1593.02	18.9401	347.973
3	630960	1580.12	467.575	1647.85	16.4841	349.378
4	501190	1649.69	420.177	1702.36	14.2894	350.903
5	398110	1701.74	362.249	1739.87	12.0171	352.543
6	316230	1758.6	321.316	1787.72	10.3543	353.918
7	251190	1802.29	281.573	1824.15	8.8796	355.323
8	199530	1818.32	233.02	1833.19	7.30275	356.753
9	158490	1854.02	206.022	1865.43	6.3408	358.178
10	125890	1880.54	180.931	1889.22	5.49566	359.458
11	100000	1902.42	158.581	1909.02	4.76501	360.783
12	79433	1919.91	139.493	1924.97	4.1556	362.043
13	63096	1934.49	122.976	1938.4	3.6374	363.503
14	50119	1946.95	109.165	1950.01	3.20919	364.903
15	39811	1957.05	97.5087	1959.48	2.85236	366.278
16	31623	1965.37	87.9433	1967.34	2.56207	367.568
17	25119	1974.15	80.9538	1975.81	2.3482	368.973
18	19953	1981.95	75.4878	1983.38	2.18121	370.298
19	15849	1988.88	71.4376	1990.17	2.05709	371.578
20	12589	1996.73	68.7727	1997.91	1.97264	372.859
21	10000	2003.5	67.4585	2004.64	1.92844	374.184
22	7943.3	2011.7	67.0733	2012.82	1.90963	375.624
23	6309.6	2018.86	67.7109	2020	1.92093	376.934
24	5011.9	2026.33	69.1759	2027.51	1.95523	378.224
25	3981.1	2034.8	71.4188	2036.06	2.01018	379.529
26	3162.3	2043.93	74.6541	2045.29	2.09179	380.859
27	2511.9	2052.63	78.7875	2054.14	2.19815	382.199
28	1995.3	2061.48	83.6193	2063.17	2.3228	383.604
29	1584.9	2071.69	89.7226	2073.64	2.47986	384.869
30	1258.9	2082.62	96.9901	2084.87	2.66641	386.164
31	1000	2094.29	105.483	2096.94	2.88337	387.529
32	794.33	2106.7	115.553	2109.86	3.13954	388.929
33	630.96	2120.29	127.286	2124.11	3.43549	390.274
34	501.19	2135.71	141.114	2140.37	3.78022	391.619
35	398.11	2150.98	156.955	2156.7	4.17342	392.864
36	316.23	2170.25	175.294	2177.31	4.61784	394.244
37	251.19	2191.43	196.436	2200.22	5.1222	395.604
38	199.53	2215.25	220.468	2226.2	5.68352	396.999
39	158.49	2241.76	247.48	2255.38	6.29968	398.304
40	125.89	2272.04	277.752	2288.96	6.96969	399.679
41	100	2307.46	311.569	2328.4	7.68994	401.014
42	79.433	2345.55	348.896	2371.36	8.46059	402.539
43	63.096	2391.1	389.815	2422.67	9.25933	404.004
44	50.119	2442.49	434.64	2480.86	10.0902	413.959
45	39.811	2499.02	483.491	2545.36	10.9499	423.134
46	31.623	2563.67	537.541	2619.42	11.842	424.859
47	25.119	2632.89	595.45	2699.38	12.7436	426.504
48	19.953	2712.26	660.342	2791.49	13.6833	428.31
49	15.849	2793.75	729.311	2887.37	14.6306	430.29
50	12.589	2884.6	808.786	2995.84	15.6625	432.245
51	10	2982.17	893.922	3113.27	16.6864	434.62
52	7.9433	3089.7	992.22	3245.11	17.8038	436.945
53	6.3096	3208.89	1103.72	3393.4	18.9811	439.255
54	5.0119	3330.01	1230.27	3550	20.2766	441.66
55	3.9811	3467.06	1376.77	3730.41	21.6581	444.115
56	3.1623	3610.99	1545.5	3927.83	23.1708	446.71
57	2.5119	3766.97	1741.72	4150.14	24.8142	453.905
58	1.9953	3936.86	1974.57	4404.3	26.6365	456.485
59	1.5849	4122.53	2248.42	4695.81	28.608	459.215
60	1.2589	4324.27	2577.36	5034.09	30.7959	462.1
61	1	4546.55	2968.94	5430.08	33.1449	467.28
62	0.79433	4796.55	3440.43	5902.83	35.6508	470.405
63	0.63096	5062.39	4007.56	6456.64	38.3663	473.85
64	0.50119	5369.23	4684.82	7125.74	41.1057	477.63
65	0.39811	5717.13	5521.49	7948.11	44.0027	481.831
66	0.31623	6105.55	6511.68	8926.35	46.8436	486.651
67	0.25119	6576.3	7765.87	10176.3	49.7414	492.026
68	0.19953	7115.78	9234.65	11658.2	52.3839	498.221
69	0.15849	7781.19	11012.6	13484.2	54.7561	505.476
70	0.12589	8524.55	13088.6	15619.9	56.924	513.991
71	0.1	9421.88	15770.7	18370.8	59.1447	524.166