File: data/20200504/Z_p53_3.txt
Index	Frequency (Hz)	Z' (Ω)	-Z'' (Ω)	Z (Ω)	-Phase (°)	Time (s)
1	1000000	1456.89	575.425	1566.41	21.5524	671.491
2	794330	1510.85	518.814	1597.45	18.952	673.527
3	630960	1581.83	468.021	1649.62	16.4821	675.648
4	501190	1651.73	419.147	1704.08	14.2389	677.819
5	398110	1703.34	362.936	1741.58	12.0283	679.88
6	316230	1760.53	321.764	1789.69	10.3574	682.001
7	251190	1804.61	282.24	1826.55	8.88902	683.952
8	199530	1820.9	233.854	1835.86	7.31829	687.749
9	158490	1856.07	206.025	1867.47	6.33394	689.705
10	125890	1883.04	181.393	1891.76	5.50233	691.731
11	100000	1904.99	158.839	1911.6	4.76631	693.957
12	79433	1921.38	140.269	1926.49	4.17542	695.963
13	63096	1936.65	123.176	1940.56	3.63926	698.019
14	50119	1948.65	109.269	1951.71	3.20944	700.07
15	39811	1959.46	97.6488	1961.89	2.85296	702.156
16	31623	1969.25	88.0731	1971.22	2.5608	704.177
17	25119	1977.09	81.0713	1978.75	2.34812	706.108
18	19953	1984.71	75.5957	1986.15	2.18129	708.055
19	15849	1992.3	71.7402	1993.59	2.06226	710.121
20	12589	1999.59	68.8997	2000.78	1.97346	712.192
21	10000	2006.64	67.4809	2007.78	1.92606	714.143
22	7943.3	2015.04	67.1362	2016.16	1.90825	716.139
23	6309.6	2020.52	67.7107	2021.65	1.91935	718.05
24	5011.9	2029.4	69.1366	2030.58	1.95117	720.086
25	3981.1	2036.79	71.4913	2038.04	2.01026	722.067
26	3162.3	2046.08	74.6427	2047.44	2.08928	724.048
27	2511.9	2055.03	78.6641	2056.54	2.19214	725.984
28	1995.3	2064.79	83.7693	2066.49	2.32323	727.95
29	1584.9	2074.42	89.8206	2076.36	2.47931	729.896
30	1258.9	2085.29	96.934	2087.54	2.66146	731.807
31	1000	2096.85	105.552	2099.51	2.88174	733.773
32	794.33	2109.25	115.587	2112.41	3.13668	735.804
33	630.96	2122.74	127.158	2126.55	3.42807	737.725
34	501.19	2138.75	140.994	2143.4	3.77169	739.736
35	398.11	2154.76	156.743	2160.45	4.16051	741.627
36	316.23	2172.86	175.256	2179.91	4.61131	743.558
37	251.19	2193.92	196.356	2202.69	5.11436	745.549
38	199.53	2217.85	220.33	2228.77	5.67337	754.03
39	158.49	2245.44	247.427	2259.03	6.28811	756.196
40	125.89	2275.31	277.551	2292.18	6.95479	758.387
41	100	2309.22	311.301	2330.11	7.67762	760.428
42	79.433	2348.63	348.463	2374.34	8.43933	762.625
43	63.096	2394.45	389.635	2425.95	9.24239	764.841
44	50.119	2446.89	433.568	2485.01	10.048	776.238
45	39.811	2502.15	483.573	2548.45	10.9383	785.994
46	31.623	2566.78	536.45	2622.24	11.8047	788.365
47	25.119	2635.91	593.919	2701.99	12.6977	790.776
48	19.953	2714.83	659.107	2793.69	13.6463	793.337
49	15.849	2797.78	728.488	2891.06	14.5947	796.088
50	12.589	2886.18	806.046	2996.62	15.6039	798.744
51	10	2985.8	892.469	3116.33	16.6416	801.84
52	7.9433	3092.38	992.243	3247.67	17.7897	804.991
53	6.3096	3209.04	1101.59	3392.85	18.9462	808.147
54	5.0119	3334.5	1230.09	3554.15	20.249	811.303
55	3.9811	3467.67	1374.29	3730.07	21.6191	814.479
56	3.1623	3614.96	1543.12	3930.54	23.1163	817.636
57	2.5119	3767.32	1739.64	4149.58	24.7861	825.875
58	1.9953	3939.96	1972.83	4406.28	26.5982	829.231
59	1.5849	4126.77	2247.76	4699.22	28.5762	832.782
60	1.2589	4327.37	2576.3	5036.22	30.7675	836.423
61	1	4545.32	2966.01	5427.44	33.1261	843.095
62	0.79433	4791.12	3436.7	5896.25	35.6521	846.991
63	0.63096	5062.08	4006.46	6455.73	38.3604	851.272
64	0.50119	5372.94	4685.04	7128.68	41.0874	855.953
65	0.39811	5706.11	5509.12	7931.59	43.9937	860.904
66	0.31623	6102.43	6541.06	8945.68	46.9869	866.445
67	0.25119	6574.46	7755.15	10166.9	49.7102	872.692
68	0.19953	7078.94	9211.93	11617.7	52.4594	879.653
69	0.15849	7752.54	10957.6	13422.8	54.7205	887.719
70	0.12589	8504.15	13114.1	15630.1	57.0377	896.98
71	0.1	9398.38	15765.3	18354.2	59.199	907.876