File: data/20200504/Z_p50_1.txt
Index	Frequency (Hz)	Z' (Ω)	-Z'' (Ω)	Z (Ω)	-Phase (°)	Time (s)
1	1000000	1647.08	808.601	1834.86	26.1478	24.9762
2	794330	1737.51	741.69	1889.19	23.1161	26.5012
3	630960	1852.93	681.028	1974.12	20.1804	27.9863
4	501190	1962.6	625.823	2059.96	17.6861	29.4413
5	398110	2057.02	559.089	2131.64	15.2054	30.8913
6	316230	2147.93	506.064	2206.74	13.2574	32.2964
7	251190	2186.56	425.614	2227.6	11.0149	33.6614
8	199530	2259.79	385	2292.35	9.66863	35.0914
9	158490	2317.66	344.451	2343.11	8.45344	36.4714
10	125890	2364.25	306.049	2383.97	7.37587	37.8165
11	100000	2403.74	271.552	2419.03	6.44541	39.3365
12	79433	2435.14	241.065	2447.05	5.65352	40.7715
13	63096	2461.28	214.046	2470.57	4.97024	42.2215
14	50119	2484.02	190.895	2491.34	4.39451	43.5216
15	39811	2504.32	171.276	2510.17	3.91248	45.0066
16	31623	2521.94	154.59	2526.67	3.50773	46.3966
17	25119	2537.61	141.287	2541.54	3.18677	47.8566
18	19953	2550.71	130.183	2554.03	2.92172	49.2717
19	15849	2564.23	121.496	2567.1	2.71272	50.6967
20	12589	2578.22	114.97	2580.78	2.55328	52.1017
21	10000	2590.47	109.909	2592.8	2.42949	53.5417
22	7943.3	2602.79	106.32	2604.96	2.33914	55.1818
23	6309.6	2616.12	104.206	2618.19	2.28102	56.6418
24	5011.9	2628.43	103.036	2630.45	2.24488	57.9968
25	3981.1	2640.96	102.761	2642.96	2.22828	59.3569
26	3162.3	2653.11	103.409	2655.13	2.23205	60.7969
27	2511.9	2666.45	104.957	2668.51	2.25412	62.1469
28	1995.3	2680.77	107.126	2682.91	2.28838	63.4569
29	1584.9	2694.48	110.127	2696.73	2.34046	64.722
30	1258.9	2708.7	113.93	2711.09	2.40849	66.017
31	1000	2724.05	118.727	2726.64	2.49564	67.482
32	794.33	2738.93	124.293	2741.75	2.59832	69.012
33	630.96	2756.81	131.022	2759.92	2.72102	70.3071
34	501.19	2773.38	138.804	2776.85	2.86519	71.6621
35	398.11	2790.43	147.911	2794.35	3.03421	72.9721
36	316.23	2811.89	158.289	2816.34	3.22195	74.3221
37	251.19	2831.43	170.143	2836.54	3.43881	75.8872
38	199.53	2853.68	183.545	2859.58	3.68012	77.1872
39	158.49	2876.54	198.26	2883.37	3.94275	78.5872
40	125.89	2902.46	214.665	2910.39	4.22987	80.0272
41	100	2930.09	233.157	2939.35	4.54964	81.3873
42	79.433	2960.04	253.456	2970.87	4.89407	82.7923
43	63.096	2992.06	275.43	3004.71	5.25948	84.2973
44	50.119	3029.31	300.813	3044.21	5.67091	85.7673
45	39.811	3069.77	328.475	3087.29	6.1076	94.9375
46	31.623	3110.95	359.109	3131.61	6.58473	96.5875
47	25.119	3158.53	393.084	3182.89	7.09409	98.2276
48	19.953	3208.97	432.057	3237.93	7.6682	100.198
49	15.849	3263.69	474.382	3297.99	8.2701	102.143
50	12.589	3324.05	521.138	3364.66	8.91019	104.238
51	10	3389.97	573.647	3438.16	9.60454	106.418
52	7.9433	3460.98	631.833	3518.18	10.3459	108.803
53	6.3096	3540.4	697.382	3608.43	11.1434	111.178
54	5.0119	3625.15	771.584	3706.35	12.0156	113.638
55	3.9811	3718.02	854.629	3814.98	12.9452	116.053
56	3.1623	3819.72	950.128	3936.11	13.9684	118.593
57	2.5119	3931.58	1059.09	4071.73	15.0764	121.278
58	1.9953	4053.27	1183.1	4222.41	16.2719	124.198
59	1.5849	4191.38	1324.74	4395.75	17.5398	128.318
60	1.2589	4338.9	1486.62	4586.51	18.9128	131.043
61	1	4506.63	1674.18	4807.56	20.3796	136.103
62	0.79433	4695.47	1887.65	5060.69	21.9009	139.223
63	0.63096	4897.01	2134.83	5342.11	23.5546	143.018
64	0.50119	5128.65	2429.93	5675.18	25.3514	146.838
65	0.39811	5376.17	2763.65	6044.91	27.2057	151.154
66	0.31623	5668.46	3138.73	6479.43	28.9741	156.614
67	0.25119	6002.74	3587.66	6993.16	30.8655	162.944
68	0.19953	6407.77	4099.87	7607.13	32.6122	169.239
69	0.15849	6826.34	4693.57	8284.23	34.5112	176.649
70	0.12589	7309.87	5421.25	9100.77	36.5619	185.489
71	0.1	7961.24	6232.61	10110.7	38.0563	195.924