File: data/20200504/Z_p54_3.txt
Index	Frequency (Hz)	Z' (Ω)	-Z'' (Ω)	Z (Ω)	-Phase (°)	Time (s)
1	1000000	1681.55	822.455	1871.91	26.0635	576.359
2	794330	1772.11	752.086	1925.1	22.9965	578.464
3	630960	1887.78	693.687	2011.2	20.1765	580.774
4	501190	1999.53	636.204	2098.31	17.6499	583.059
5	398110	2095.85	565.744	2170.87	15.1061	585.334
6	316230	2189.51	512.007	2248.58	13.1618	587.494
7	251190	2226.83	430.733	2268.1	10.9475	589.514
8	199530	2300.68	390.696	2333.62	9.6379	591.674
9	158490	2359.98	349.439	2385.71	8.4225	593.984
10	125890	2407.57	310.563	2427.52	7.35025	596.199
11	100000	2447.18	275.543	2462.65	6.42423	598.369
12	79433	2480.98	244.146	2492.97	5.62021	602.09
13	63096	2507.82	216.224	2517.13	4.92785	604.27
14	50119	2531.42	191.831	2538.68	4.3336	606.31
15	39811	2550.91	170.498	2556.6	3.82386	608.45
16	31623	2567.66	152.2	2572.17	3.39228	610.435
17	25119	2582.68	137.86	2586.36	3.05546	612.51
18	19953	2596.58	125.888	2599.63	2.77564	616.145
19	15849	2609.42	115.906	2612	2.54331	618.095
20	12589	2621.68	108.325	2623.92	2.36606	620.035
21	10000	2631.94	102.602	2633.93	2.23246	622
22	7943.3	2644.21	98.1619	2646.03	2.12604	623.965
23	6309.6	2655.05	95.4351	2656.77	2.05859	626.015
24	5011.9	2665.91	93.7608	2667.56	2.01428	627.97
25	3981.1	2675.98	93.3878	2677.61	1.99873	629.905
26	3162.3	2687.72	93.8902	2689.36	2.0007	631.96
27	2511.9	2700.13	95.4316	2701.82	2.02418	633.94
28	1995.3	2710.32	97.9144	2712.09	2.06899	635.87
29	1584.9	2721.96	101.419	2723.85	2.13384	637.89
30	1258.9	2735.71	106.128	2737.76	2.22159	639.84
31	1000	2748.57	111.866	2750.84	2.33063	641.79
32	794.33	2763.58	118.926	2766.14	2.4641	643.92
33	630.96	2779.04	127.309	2781.96	2.62291	645.84
34	501.19	2794.42	137.36	2797.79	2.81412	647.805
35	398.11	2811.61	149.153	2815.56	3.03663	649.875
36	316.23	2828.2	162.77	2832.88	3.2939	651.805
37	251.19	2849.4	178.748	2855	3.58956	653.806
38	199.53	2870.79	196.557	2877.51	3.91681	655.716
39	158.49	2895.79	217.025	2903.91	4.28602	657.716
40	125.89	2921.68	239.924	2931.51	4.69452	659.731
41	100	2951.31	265.949	2963.27	5.14913	661.756
42	79.433	2985.74	294.922	3000.27	5.6412	663.901
43	63.096	3022.15	326.996	3039.79	6.17536	666.036
44	50.119	3064.41	363.996	3085.96	6.77396	677.246
45	39.811	3109.77	402.126	3135.66	7.36808	687.011
46	31.623	3160.35	445.578	3191.61	8.02524	689.256
47	25.119	3218	493.327	3255.59	8.71572	691.606
48	19.953	3280.39	548.053	3325.86	9.48477	694.171
49	15.849	3347.2	607.052	3401.8	10.2795	696.856
50	12.589	3422.74	672.856	3488.25	11.1216	699.421
51	10	3501.7	747.812	3580.66	12.0548	702.351
52	7.9433	3591.61	831.839	3686.68	13.0401	705.296
53	6.3096	3687.96	927.63	3802.83	14.1187	708.327
54	5.0119	3790.15	1037.33	3929.54	15.3066	711.437
55	3.9811	3905.55	1165.1	4075.63	16.6108	714.562
56	3.1623	4029.03	1312.31	4237.37	18.0411	717.752
57	2.5119	4164.37	1485.86	4421.51	19.6365	721.052
58	1.9953	4310.12	1687.89	4628.83	21.3858	724.357
59	1.5849	4476.73	1928.14	4874.3	23.3017	727.812
60	1.2589	4654.02	2211.7	5152.82	25.4182	731.447
61	1	4859.07	2545.56	5485.47	27.6491	737.732
62	0.79433	5091.91	2940.28	5879.86	30.0039	741.527
63	0.63096	5353.32	3418.32	6351.6	32.5599	745.662
64	0.50119	5639.08	3968.88	6895.74	35.1386	750.177
65	0.39811	5959.41	4652.09	7560.19	37.9767	754.992
66	0.31623	6358.39	5444.27	8370.73	40.5713	760.457
67	0.25119	6792.73	6411.16	9340.46	43.3447	766.553
68	0.19953	7375.64	7569.4	10568.6	45.7428	773.503
69	0.15849	8006.36	8953.19	12010.9	48.1954	781.363
70	0.12589	8783.65	10548.2	13726.5	50.2155	790.513
71	0.1	9643.09	12385.8	15697.1	52.0972	801.573