File: data/20200504/Z_p51_2.txt
Index	Frequency (Hz)	Z' (Ω)	-Z'' (Ω)	Z (Ω)	-Phase (°)	Time (s)
1	1000000	1053.15	400.776	1126.83	20.8343	342.647
2	794330	1091.7	368.157	1152.11	18.6357	344.267
3	630960	1142.08	336.905	1190.74	16.4356	345.692
4	501190	1191.63	306.641	1230.45	14.4308	347.212
5	398110	1226.31	269.854	1255.65	12.4104	348.652
6	316230	1269.39	242.254	1292.3	10.8046	350.157
7	251190	1302.94	215.691	1320.67	9.39961	351.442
8	199530	1332.32	191.522	1346.02	8.18025	352.867
9	158490	1354.29	169.448	1364.85	7.13176	354.297
10	125890	1374.82	150.617	1383.04	6.25205	355.587
11	100000	1390.91	133.577	1397.31	5.4856	359.557
12	79433	1404.65	118.853	1409.67	4.8365	360.752
13	63096	1416.55	106.679	1420.56	4.30675	362.157
14	50119	1428.84	96.4462	1432.09	3.86159	363.577
15	39811	1438.93	87.622	1441.59	3.48467	365.062
16	31623	1446.16	80.3446	1448.39	3.17992	366.492
17	25119	1454.72	74.8241	1456.64	2.94444	367.812
18	19953	1462.64	70.6267	1464.34	2.76451	369.112
19	15849	1470.37	67.6172	1471.93	2.63298	370.452
20	12589	1477.03	65.6345	1478.49	2.54437	371.857
21	10000	1484.78	64.7601	1486.19	2.49743	373.277
22	7943.3	1492.39	64.9283	1493.81	2.49115	374.648
23	6309.6	1500.01	65.9745	1501.46	2.5184	375.958
24	5011.9	1507.31	67.8149	1508.83	2.57604	377.298
25	3981.1	1515.03	70.7024	1516.68	2.6719	378.663
26	3162.3	1523.48	74.3487	1525.29	2.79393	379.953
27	2511.9	1532.12	78.8866	1534.15	2.94748	381.328
28	1995.3	1542.34	84.6025	1544.66	3.13971	382.693
29	1584.9	1551.62	91.1404	1554.29	3.36163	384.068
30	1258.9	1562.84	98.8566	1565.96	3.6194	385.513
31	1000	1575.43	107.951	1579.12	3.91989	386.903
32	794.33	1588.97	118.383	1593.37	4.26083	388.343
33	630.96	1602.58	130.294	1607.87	4.64805	389.698
34	501.19	1619.35	144.003	1625.74	5.08174	391.028
35	398.11	1636.14	159.493	1643.9	5.56766	392.658
36	316.23	1656	177.139	1665.45	6.1056	394.063
37	251.19	1678.13	197.076	1689.66	6.69802	395.448
38	199.53	1702.12	219.68	1716.23	7.3541	396.778
39	158.49	1729.12	245.156	1746.41	8.06967	398.138
40	125.89	1757.94	273.304	1779.06	8.83694	399.703
41	100	1791.48	305.366	1817.32	9.67336	401.108
42	79.433	1829.18	341.439	1860.78	10.5732	402.673
43	63.096	1870.06	381.399	1908.56	11.5274	404.223
44	50.119	1917.12	426.95	1964.09	12.5551	414.283
45	39.811	1968.29	478.098	2025.52	13.6527	423.358
46	31.623	2026.51	535.561	2096.08	14.8036	425.208
47	25.119	2091.51	600.201	2175.93	16.0119	426.878
48	19.953	2164.68	674.466	2267.32	17.3059	428.904
49	15.849	2242.97	756.116	2366.98	18.6292	430.909
50	12.589	2330.7	849.726	2480.76	20.0309	432.969
51	10	2431.6	955.202	2612.49	21.4463	435.304
52	7.9433	2539.37	1075.13	2757.59	22.947	437.649
53	6.3096	2660.87	1211.25	2923.59	24.4755	440.114
54	5.0119	2796.05	1367.92	3112.73	26.0694	442.534
55	3.9811	2943.26	1546.05	3324.61	27.7123	445.109
56	3.1623	3104.54	1751.84	3564.7	29.4353	449.779
57	2.5119	3282.13	1991.79	3839.22	31.2518	452.269
58	1.9953	3480.79	2272.95	4157.18	33.1445	454.919
59	1.5849	3700.19	2604.99	4525.19	35.1462	457.699
60	1.2589	3951.18	2995.87	4958.54	37.1702	460.619
61	1	4220.45	3457.2	5455.68	39.3228	468.369
62	0.79433	4531.06	4003.97	6046.68	41.4661	474.799
63	0.63096	4887.97	4656.36	6750.85	43.6099	479.044
64	0.50119	5284.84	5418.63	7569.09	45.7161	483.32
65	0.39811	5746.03	6334.32	8552.22	47.788	487.525
66	0.31623	6301.57	7424.17	9737.97	49.6757	493.06
67	0.25119	6911.69	8740.7	11143.2	51.6649	498.48
68	0.19953	7669.24	10247.5	12799.6	53.1889	505.8
69	0.15849	8502.97	12033.2	14734.3	54.754	513.045
70	0.12589	9432.73	14233.1	17075.1	56.4664	521.675
71	0.1	10719.2	16809.3	19936.2	57.4745	531.85