File: data/20200504/Z_p54_1.txt
Index	Frequency (Hz)	Z' (Ω)	-Z'' (Ω)	Z (Ω)	-Phase (°)	Time (s)
1	1000000	1681.65	825.134	1873.18	26.1357	30.7043
2	794330	1772.8	752.576	1925.93	23.0018	32.1694
3	630960	1889.05	693.014	2012.16	20.146	33.6844
4	501190	2002.01	634.162	2100.04	17.5763	35.1144
5	398110	2096.4	565.766	2171.4	15.1029	36.5145
6	316230	2189.04	512.943	2248.33	13.1878	37.8845
7	251190	2226.58	430.806	2267.88	10.9504	39.3045
8	199530	2301.39	390.019	2334.2	9.6186	40.7945
9	158490	2360.14	349.471	2385.87	8.4227	42.2946
10	125890	2408.39	311.023	2428.39	7.35852	43.6846
11	100000	2447.82	275.606	2463.29	6.42402	45.1396
12	79433	2480.8	244.582	2492.83	5.6306	46.5396
13	63096	2507.06	216.095	2516.35	4.92642	47.9647
14	50119	2530.88	191.778	2538.14	4.33331	49.3647
15	39811	2551.38	170.693	2557.08	3.82751	50.7597
16	31623	2568.2	152.219	2572.71	3.39198	52.1847
17	25119	2582.7	137.879	2586.37	3.05588	53.5498
18	19953	2596.8	125.902	2599.85	2.77574	54.8848
19	15849	2609.05	116.141	2611.64	2.54881	56.2198
20	12589	2621.78	108.414	2624.02	2.3679	57.5998
21	10000	2631.99	102.419	2633.99	2.22844	58.9899
22	7943.3	2644.14	98.3089	2645.96	2.12927	60.3549
23	6309.6	2654.7	95.3978	2656.42	2.05806	61.6699
24	5011.9	2664.68	93.8328	2666.33	2.01676	62.9549
25	3981.1	2676.14	93.2802	2677.76	1.99631	64.41
26	3162.3	2686.38	93.8818	2688.02	2.00152	65.89
27	2511.9	2699.32	95.3979	2701.01	2.02407	67.205
28	1995.3	2710.51	97.9233	2712.28	2.06904	68.555
29	1584.9	2721.78	101.507	2723.67	2.13582	69.7901
30	1258.9	2733.99	106.164	2736.05	2.22374	71.1001
31	1000	2747.65	111.828	2749.93	2.33062	72.4451
32	794.33	2762.11	118.792	2764.67	2.46263	73.9451
33	630.96	2775.89	127.358	2778.81	2.62688	75.2002
34	501.19	2793.15	137.393	2796.53	2.81608	76.5302
35	398.11	2808.93	149.08	2812.88	3.03804	77.9202
36	316.23	2826.48	162.87	2831.17	3.2979	79.3352
37	251.19	2847.45	178.782	2853.06	3.59269	80.7553
38	199.53	2869.7	196.964	2876.45	3.92638	82.0253
39	158.49	2893.54	217.495	2901.7	4.2986	83.3403
40	125.89	2920.22	240.181	2930.08	4.70187	84.8453
41	100	2948.54	266.258	2960.54	5.1599	86.2604
42	79.433	2983.03	295.256	2997.6	5.65264	87.7454
43	63.096	3019.58	327.638	3037.3	6.19262	89.2204
44	50.119	3063.25	364.149	3084.82	6.77931	99.1756
45	39.811	3106.6	402.706	3132.59	7.38602	108.371
46	31.623	3158.84	446.458	3190.23	8.04469	110.056
47	25.119	3215.83	494.366	3253.6	8.7396	111.681
48	19.953	3278.41	549.533	3324.15	9.51557	113.656
49	15.849	3346.88	608.957	3401.83	10.312	115.716
50	12.589	3421.04	675.397	3487.08	11.168	117.696
51	10	3502.01	749.929	3581.41	12.0869	120.096
52	7.9433	3591.21	834.969	3687	13.0889	122.421
53	6.3096	3688.19	931.402	3803.98	14.1729	124.816
54	5.0119	3789.86	1041.07	3930.25	15.3602	127.206
55	3.9811	3904.97	1168.43	4076.03	16.6581	129.661
56	3.1623	4027.5	1317.05	4237.38	18.1085	132.211
57	2.5119	4163.39	1490.08	4422.01	19.6923	134.801
58	1.9953	4311.6	1693.61	4632.3	21.4451	137.466
59	1.5849	4477.85	1933.38	4877.41	23.353	140.276
60	1.2589	4659.68	2213.77	5158.82	25.412	143.151
61	1	4863.52	2550.67	5491.79	27.6747	148.372
62	0.79433	5099.39	2947.41	5889.9	30.0276	151.567
63	0.63096	5359.02	3424.2	6359.58	32.5769	155.032
64	0.50119	5650.19	3975.31	6908.53	35.1291	158.877
65	0.39811	5985.28	4660.95	7586.04	37.9092	163.132
66	0.31623	6370.31	5451.68	8384.6	40.5568	167.977
67	0.25119	6827.87	6451.93	9394	43.3784	173.387
68	0.19953	7353.94	7598.58	10574.4	45.9373	179.662
69	0.15849	8026.22	8955.17	12025.6	48.1312	186.842
70	0.12589	8782.29	10510.6	13696.8	50.1191	195.487
71	0.1	9588.72	12477.8	15736.6	52.4591	205.683