File: data/20200504/Z_p53_1.txt
Index	Frequency (Hz)	Z' (Ω)	-Z'' (Ω)	Z (Ω)	-Phase (°)	Time (s)
1	1000000	1457.43	575.233	1566.84	21.5387	25.3213
2	794330	1509.45	518.491	1596.02	18.9574	26.7513
3	630960	1581.63	467.94	1649.4	16.4813	28.2263
4	501190	1651.25	419.711	1703.76	14.2613	29.7513
5	398110	1702.23	362.931	1740.49	12.0358	31.1964
6	316230	1761.26	322.071	1790.46	10.3629	32.5014
7	251190	1804.97	282.504	1826.94	8.89545	33.8314
8	199530	1820.64	234.021	1835.61	7.32453	35.2414
9	158490	1855.51	206.603	1866.97	6.35349	36.7715
10	125890	1882.23	181.31	1890.94	5.50219	38.0615
11	100000	1904.25	158.977	1910.88	4.77228	39.4315
12	79433	1921.87	139.786	1926.94	4.16004	40.6965
13	63096	1935.86	123.256	1939.78	3.64311	42.0816
14	50119	1948.44	109.319	1951.5	3.21126	43.4666
15	39811	1958.91	97.7087	1961.34	2.8555	44.8316
16	31623	1968.19	88.1611	1970.16	2.56474	46.1416
17	25119	1976.37	81.0969	1978.04	2.34971	47.4467
18	19953	1983.02	75.5679	1984.46	2.18234	48.8417
19	15849	1990.92	71.645	1992.21	2.06095	50.1467
20	12589	1999.51	68.9938	2000.7	1.97622	51.4217
21	10000	2005.63	67.5972	2006.76	1.93035	52.8118
22	7943.3	2012.55	67.181	2013.67	1.91188	54.1318
23	6309.6	2020.3	67.8367	2021.44	1.92312	55.4268
24	5011.9	2028.09	69.3145	2029.27	1.95745	56.7168
25	3981.1	2036.83	71.6101	2038.09	2.01355	58.0019
26	3162.3	2045.53	74.8006	2046.89	2.09425	59.2719
27	2511.9	2053.26	78.8365	2054.77	2.19884	60.5569
28	1995.3	2062.2	83.898	2063.91	2.32972	61.8669
29	1584.9	2073.38	89.9022	2075.33	2.4828	63.102
30	1258.9	2084.68	97.359	2086.95	2.67389	64.442
31	1000	2095.34	105.859	2098.02	2.89219	65.742
32	794.33	2108.7	115.983	2111.89	3.14822	67.152
33	630.96	2122	127.766	2125.85	3.44564	68.412
34	501.19	2137.03	141.517	2141.71	3.78867	69.7471
35	398.11	2153.67	157.633	2159.43	4.18619	71.0621
36	316.23	2171.74	176.108	2178.87	4.63601	72.4921
37	251.19	2192.8	197.355	2201.66	5.14285	73.7971
38	199.53	2215.63	221.419	2226.67	5.70689	75.1972
39	158.49	2243.38	248.791	2257.13	6.32824	76.5372
40	125.89	2274.17	279.25	2291.25	7.00044	78.7172
41	100	2307.84	313.266	2329.01	7.73007	79.9673
42	79.433	2348.93	351.073	2375.02	8.50057	81.4373
43	63.096	2392.87	392.336	2424.82	9.31139	82.9023
44	50.119	2444.31	436.711	2483.01	10.1298	92.7775
45	39.811	2501.92	487.167	2548.91	11.0186	101.793
46	31.623	2566.77	541.135	2623.19	11.905	103.513
47	25.119	2637.06	599.175	2704.27	12.801	105.073
48	19.953	2716	665.193	2796.27	13.7618	107.053
49	15.849	2797.23	734.962	2892.17	14.7215	109.018
50	12.589	2891.43	815.439	3004.21	15.7495	111.078
51	10	2989.52	902.123	3122.66	16.7918	113.318
52	7.9433	3096.27	999.582	3253.62	17.8919	115.623
53	6.3096	3213.97	1112.19	3400.97	19.0881	117.898
54	5.0119	3341.25	1240.86	3564.22	20.3737	120.313
55	3.9811	3478.71	1386.8	3744.95	21.7348	122.723
56	3.1623	3625.19	1557.31	3945.53	23.2475	125.273
57	2.5119	3782.43	1755.85	4170.11	24.9013	130.123
58	1.9953	3950.39	1987.59	4422.23	26.7087	132.648
59	1.5849	4142.62	2265.27	4721.52	28.6708	135.508
60	1.2589	4345.53	2591.29	5059.49	30.8082	138.418
61	1	4569.97	2986.19	5459.12	33.1621	143.378
62	0.79433	4821.78	3461.24	5935.46	35.6721	146.573
63	0.63096	5092.4	4016.93	6486	38.2667	150.119
64	0.50119	5394.68	4712.32	7163	41.1376	153.919
65	0.39811	5731.79	5542.96	7973.57	44.0405	158.109
66	0.31623	6150.66	6558.7	8991.51	46.8389	162.864
67	0.25119	6589.17	7757.76	10178.4	49.6566	168.304
68	0.19953	7134.3	9217.85	11656.2	52.2614	174.524
69	0.15849	7767.51	10996.5	13463.2	54.7641	181.794
70	0.12589	8599.6	13186.2	15742.6	56.8888	190.289
71	0.1	9490.69	15647.9	18301.1	58.7626	200.469