File: data/20200504/Z_p54_2.txt
Index	Frequency (Hz)	Z' (Ω)	-Z'' (Ω)	Z (Ω)	-Phase (°)	Time (s)
1	1000000	1680.83	822.353	1871.22	26.0704	293.992
2	794330	1771.48	752.929	1924.85	23.0269	295.407
3	630960	1886.46	692.734	2009.63	20.1639	296.907
4	501190	2000.68	637.432	2099.77	17.6723	298.447
5	398110	2095.51	565.84	2170.56	15.1109	299.852
6	316230	2187.46	511.664	2246.51	13.1652	301.167
7	251190	2225.08	430.267	2266.3	10.9443	302.487
8	199530	2299.16	389.521	2331.93	9.61567	303.902
9	158490	2358.45	348.891	2384.11	8.41487	305.202
10	125890	2406.13	310.369	2426.07	7.35005	306.497
11	100000	2446.19	275.176	2461.62	6.41832	307.987
12	79433	2477.84	243.746	2489.8	5.61814	309.312
13	63096	2506.63	215.909	2515.92	4.92302	310.712
14	50119	2528.78	191.549	2536.03	4.33175	312.102
15	39811	2549.12	170.313	2554.8	3.82239	313.487
16	31623	2565.99	152.038	2570.49	3.39088	314.797
17	25119	2581.78	137.796	2585.45	3.05511	316.102
18	19953	2596.04	125.911	2599.09	2.77673	317.412
19	15849	2608.28	116.033	2610.86	2.54721	318.928
20	12589	2619.03	108.298	2621.27	2.36785	320.453
21	10000	2631.4	102.585	2633.4	2.23254	321.803
22	7943.3	2642.12	98.2025	2643.95	2.12859	323.133
23	6309.6	2654.63	95.5205	2656.35	2.06076	324.498
24	5011.9	2663.57	93.82	2665.22	2.01732	325.808
25	3981.1	2675.26	93.2675	2676.88	1.99669	327.173
26	3162.3	2685.12	93.7686	2686.76	2.00004	328.488
27	2511.9	2697.28	95.3305	2698.97	2.02417	329.773
28	1995.3	2708.61	97.8887	2710.38	2.06975	331.068
29	1584.9	2721.08	101.357	2722.96	2.13322	332.338
30	1258.9	2733.72	106.058	2735.78	2.22175	333.618
31	1000	2746.76	111.827	2749.04	2.33135	335.083
32	794.33	2760.81	118.738	2763.36	2.46268	336.393
33	630.96	2776.08	127.298	2779	2.62549	337.668
34	501.19	2790.46	137.398	2793.84	2.81889	339.018
35	398.11	2808.3	149.105	2812.26	3.03922	340.228
36	316.23	2826.86	162.946	2831.55	3.299	341.613
37	251.19	2846.91	178.507	2852.5	3.58786	343.038
38	199.53	2868.98	196.77	2875.72	3.9235	344.433
39	158.49	2892.25	216.99	2900.37	4.29055	345.923
40	125.89	2919.49	240.009	2929.34	4.69968	347.423
41	100	2948.19	266.094	2960.18	5.15736	348.913
42	79.433	2981.63	294.612	2996.15	5.64302	350.378
43	63.096	3018.82	326.657	3036.44	6.17578	351.908
44	50.119	3061.87	363.244	3083.34	6.76564	353.308
45	39.811	3107.69	402.218	3133.61	7.3746	362.608
46	31.623	3160.45	445.635	3191.72	8.02599	364.233
47	25.119	3215.63	494.057	3253.36	8.73477	365.918
48	19.953	3277.47	548.516	3323.06	9.50094	367.828
49	15.849	3346.04	607.89	3400.81	10.2969	369.778
50	12.589	3419.64	673.704	3485.37	11.1451	371.843
51	10	3500.53	748.299	3579.62	12.0663	374.199
52	7.9433	3590.07	832.657	3685.36	13.0579	376.564
53	6.3096	3685.44	929.036	3800.74	14.1485	378.864
54	5.0119	3789.97	1039.1	3929.84	15.3321	381.219
55	3.9811	3903.56	1166.07	4074	16.6319	383.634
56	3.1623	4026.98	1314.19	4236	18.0739	386.149
57	2.5119	4162.94	1487.08	4420.57	19.6577	388.799
58	1.9953	4310.35	1692.15	4630.61	21.4339	391.349
59	1.5849	4475.8	1929.66	4874.05	23.3224	394.199
60	1.2589	4655.43	2210.6	5153.62	25.4004	397.149
61	1	4860.23	2548.73	5487.98	27.6727	402.164
62	0.79433	5087.7	2948.07	5880.12	30.0902	405.384
63	0.63096	5354.22	3419.24	6352.86	32.5625	409.074
64	0.50119	5645.72	3974.43	6904.36	35.1445	412.899
65	0.39811	5980.79	4656.83	7579.97	37.9054	417.144
66	0.31623	6360.02	5446.16	8373.2	40.5738	421.869
67	0.25119	6832.61	6434.82	9385.71	43.2826	427.235
68	0.19953	7363.12	7591.71	10575.9	45.8757	433.495
69	0.15849	8020.32	8929.98	12002.9	48.0719	440.705
70	0.12589	8740.38	10488.8	13653.2	50.1954	449.32
71	0.1	9611.8	12515.4	15780.5	52.4759	459.555