File: data/20200504/Z_p50_3.txt
Index	Frequency (Hz)	Z' (Ω)	-Z'' (Ω)	Z (Ω)	-Phase (°)	Time (s)
1	1000000	1645.68	807.408	1833.08	26.1336	437.439
2	794330	1737.76	737.501	1887.78	22.9963	439.876
3	630960	1851.79	680.149	1972.74	20.168	442.277
4	501190	1964.09	625.856	2061.39	17.6745	444.688
5	398110	2056.72	559.181	2131.38	15.2099	447.124
6	316230	2146.5	505.431	2205.2	13.2499	449.37
7	251190	2185.42	425.32	2226.42	11.0131	451.786
8	199530	2258.63	383.977	2291.04	9.64828	454.277
9	158490	2317.88	344.287	2343.31	8.44867	456.698
10	125890	2364.35	306.09	2384.08	7.37652	459.054
11	100000	2402.25	271.565	2417.55	6.44967	461.41
12	79433	2435.16	240.662	2447.02	5.64411	463.751
13	63096	2461.3	214.058	2470.59	4.97048	466.157
14	50119	2484.4	190.954	2491.72	4.39519	468.743
15	39811	2503.61	171.171	2509.46	3.9112	471.149
16	31623	2520.2	154.449	2524.93	3.50695	473.62
17	25119	2536.71	141.013	2540.63	3.18173	475.911
18	19953	2551.19	130.112	2554.51	2.91959	478.467
19	15849	2564.71	121.521	2567.58	2.71277	480.853
20	12589	2577.91	114.84	2580.46	2.5507	483.204
21	10000	2590.92	109.885	2593.25	2.42855	485.61
22	7943.3	2604.69	106.446	2606.87	2.3402	488.076
23	6309.6	2616.12	104.159	2618.19	2.27999	490.497
24	5011.9	2629.53	103.078	2631.55	2.24484	493.024
25	3981.1	2641.22	102.751	2643.22	2.22785	495.475
26	3162.3	2654.23	103.511	2656.24	2.23331	497.976
27	2511.9	2669.36	105.158	2671.43	2.25596	500.267
28	1995.3	2680.78	107.062	2682.92	2.287	502.683
29	1584.9	2695.03	110.261	2697.29	2.34283	504.954
30	1258.9	2709.43	114.031	2711.83	2.40996	507.215
31	1000	2725.21	118.856	2727.8	2.49729	509.526
32	794.33	2741.41	124.525	2744.24	2.60079	511.902
33	630.96	2756.34	131.189	2759.46	2.72496	514.298
34	501.19	2774.32	139.132	2777.81	2.87096	516.594
35	398.11	2791.61	148.4	2795.55	3.04293	518.91
36	316.23	2811.32	158.662	2815.8	3.23016	523.147
37	251.19	2831.98	170.592	2837.12	3.4472	525.573
38	199.53	2855.09	184.105	2861.02	3.68951	527.794
39	158.49	2878.45	199.177	2885.34	3.95833	530.405
40	125.89	2903.27	215.738	2911.27	4.24977	532.786
41	100	2932.44	234.365	2941.79	4.56946	535.192
42	79.433	2962.27	254.907	2973.22	4.91825	537.613
43	63.096	2994.73	277.368	3007.54	5.29156	540.189
44	50.119	3032.2	302.702	3047.27	5.7009	542.72
45	39.811	3073.02	330.861	3090.78	6.14517	552.782
46	31.623	3114.66	361.727	3135.59	6.62448	555.468
47	25.119	3161.5	396.099	3186.22	7.14128	558.094
48	19.953	3213.13	435.398	3242.49	7.71691	561.005
49	15.849	3268.46	478.23	3303.26	8.32427	564.091
50	12.589	3327.68	525.826	3368.97	8.97938	567.137
51	10	3395.31	578.83	3444.29	9.67475	570.378
52	7.9433	3469	638.698	3527.31	10.4322	573.734
53	6.3096	3546.52	705.115	3615.94	11.2448	577.14
54	5.0119	3632.57	780.789	3715.53	12.1307	580.766
55	3.9811	3729.09	866.048	3828.34	13.0747	584.162
56	3.1623	3829.73	961.996	3948.7	14.1005	587.558
57	2.5119	3945.37	1073.99	4088.93	15.2279	591.089
58	1.9953	4070.51	1197.8	4243.08	16.3973	594.71
59	1.5849	4209.93	1341.61	4418.54	17.6759	598.356
60	1.2589	4361.51	1506.63	4614.41	19.0569	604.689
61	1	4531.53	1697.78	4839.13	20.539	611.416
62	0.79433	4724.74	1914.72	5097.98	22.0605	615.512
63	0.63096	4938.19	2161.1	5390.37	23.6356	619.958
64	0.50119	5164.71	2446.31	5714.77	25.345	624.734
65	0.39811	5434.44	2795.58	6111.33	27.2222	630.1
66	0.31623	5713.46	3187.38	6542.4	29.1559	635.746
67	0.25119	6052.85	3645.28	7065.76	31.0581	642.137
68	0.19953	6491.11	4170.77	7715.56	32.7222	649.338
69	0.15849	6905.61	4794.41	8406.77	34.7714	657.46
70	0.12589	7416.89	5489.19	9227.21	36.5049	666.991
71	0.1	8036.11	6273.75	10195	37.979	678.182