File: data/20200304/OCP_p30_1.txt
Time (s)	WE(1).Potential (V)	Corrected time (s)	Index	dWE(1).Potential/dt (V/s)	Cutoffs	OCP value (V)
1.30974	0.00355835	0	1	0	dWE(1).Potential/dt < 1E-06 V/s	0.00354875
1.40974	0.00355835	0.1	2	0	dWE(1).Potential/dt < 1E-06 V/s
1.50974	0.00355835	0.2	3	-1.16415e-09	dWE(1).Potential/dt < 1E-06 V/s
1.60974	0.0035614	0.3	4	5.59453e-05
1.70974	0.00357056	0.4	5	0.000132252
1.80974	0.0035675	0.5	6	-0.00015259	dWE(1).Potential/dt < 1E-06 V/s
1.90974	0.00357056	0.6	7	0.000122073
2.00974	0.0035614	0.7	8	-0.000213627	dWE(1).Potential/dt < 1E-06 V/s
2.10974	0.00354614	0.8	9	-0.000162756	dWE(1).Potential/dt < 1E-06 V/s
2.20974	0.00356445	0.9	10	0.000483201
2.30974	0.0035553	1	11	-0.000432343	dWE(1).Potential/dt < 1E-06 V/s
2.40974	0.00357666	1.1	12	0.00055949
2.50974	0.00357056	1.2	13	-0.000391635	dWE(1).Potential/dt < 1E-06 V/s
2.60974	0.00357666	1.3	14	0.000254307
2.70974	0.0035675	1.4	15	-0.00025939	dWE(1).Potential/dt < 1E-06 V/s
2.80974	0.00357361	1.5	16	0.000239052
2.90974	0.00355225	1.6	17	-0.00049337	dWE(1).Potential/dt < 1E-06 V/s
3.00974	0.00355835	1.7	18	0.000381472
3.10974	0.00357056	1.8	19	8.13766e-05
3.20974	0.00357361	1.9	20	-6.61216e-05	dWE(1).Potential/dt < 1E-06 V/s
3.30974	0.00357056	2	21	-5.08649e-05	dWE(1).Potential/dt < 1E-06 V/s
3.40974	0.00357971	2.1	22	0.000213627
3.50974	0.0035614	2.2	23	-0.000452687	dWE(1).Potential/dt < 1E-06 V/s
3.60974	0.00355225	2.3	24	7.63063e-05
3.70974	0.0035553	2.4	25	0.000101724
3.80974	0.00356445	2.5	26	0.000101727
3.90974	0.00357361	2.6	27	7.11988e-05
4.00974	0.00355835	2.7	28	-0.000356038	dWE(1).Potential/dt < 1E-06 V/s
4.10974	0.00358276	2.8	29	0.000656127
4.20974	0.00354919	2.9	30	-0.000951125	dWE(1).Potential/dt < 1E-06 V/s
4.30974	0.00355835	3	31	0.000640859
4.40974	0.00357361	3.1	32	6.1035e-05
4.50974	0.00356445	3.2	33	-0.000315347	dWE(1).Potential/dt < 1E-06 V/s
4.60974	0.00357666	3.3	34	0.000381461
4.70974	0.00356445	3.4	35	-0.000396715	dWE(1).Potential/dt < 1E-06 V/s
4.80974	0.00354919	3.5	36	-9.6648e-05	dWE(1).Potential/dt < 1E-06 V/s
4.90974	0.0035675	3.6	37	0.00047302
5.00974	0.00355225	3.7	38	-0.000544223	dWE(1).Potential/dt < 1E-06 V/s
5.10974	0.00358582	3.8	39	0.000854493
5.20974	0.0035553	3.9	40	-0.00100199	dWE(1).Potential/dt < 1E-06 V/s
5.30974	0.00357666	4	41	0.000859576
5.40974	0.00355835	4.1	42	-0.000686639	dWE(1).Potential/dt < 1E-06 V/s
5.50974	0.00357971	4.2	43	0.000676469
5.60974	0.00357361	4.3	44	-0.000422167	dWE(1).Potential/dt < 1E-06 V/s
5.70974	0.0035553	4.4	45	-0.000193277	dWE(1).Potential/dt < 1E-06 V/s
5.80974	0.0035675	4.5	46	0.000417076
5.90974	0.00355835	4.6	47	-0.000371296	dWE(1).Potential/dt < 1E-06 V/s
6.00974	0.00357056	4.7	48	0.000371293
6.10974	0.00355835	4.8	49	-0.000396729	dWE(1).Potential/dt < 1E-06 V/s
6.20974	0.00357361	4.9	50	0.000462846
6.30974	0.00356445	5	51	-0.000386555	dWE(1).Potential/dt < 1E-06 V/s
6.40974	0.00356445	5.1	52	0.000157671
6.50974	0.00356445	5.2	53	-3.05187e-05	dWE(1).Potential/dt < 1E-06 V/s
6.60974	0.00357666	5.3	54	0.000223789
6.70974	0.0035614	5.4	55	-0.000422151	dWE(1).Potential/dt < 1E-06 V/s
6.80974	0.00355225	5.5	56	5.08673e-05
6.90974	0.00355835	5.6	57	0.000167844
7.00974	0.00355835	5.7	58	-0.00010173	dWE(1).Potential/dt < 1E-06 V/s
7.10974	0.00356445	5.8	59	0.000132244
7.20974	0.0035614	5.9	60	-0.000127165	dWE(1).Potential/dt < 1E-06 V/s
7.30974	0.00357971	6	61	0.000391656
7.40974	0.00357361	6.1	62	-0.000335706	dWE(1).Potential/dt < 1E-06 V/s
7.50974	0.0035553	6.2	63	-0.000203449	dWE(1).Potential/dt < 1E-06 V/s
7.60974	0.0035675	6.3	64	0.000417076
7.70974	0.00357361	6.4	65	-9.15513e-05	dWE(1).Potential/dt < 1E-06 V/s
7.80974	0.0035675	6.5	66	-0.000142418	dWE(1).Potential/dt < 1E-06 V/s
7.90974	0.00356445	6.6	67	3.56099e-05
8.00974	0.00357666	6.7	68	0.000239043
8.10974	0.0035675	6.8	69	-0.000320422	dWE(1).Potential/dt < 1E-06 V/s
8.20974	0.00357971	6.9	70	0.000371298
8.30974	0.0035675	7	71	-0.000396736	dWE(1).Potential/dt < 1E-06 V/s
8.40974	0.0035614	7.1	72	7.12112e-05
8.50974	0.00357971	7.2	73	0.000366219
8.60974	0.00357056	7.3	74	-0.000401826	dWE(1).Potential/dt < 1E-06 V/s
8.70974	0.0035675	7.4	75	0.000111903
8.80974	0.00357361	7.5	76	0.000116985
8.90974	0.00357361	7.6	77	-8.13852e-05	dWE(1).Potential/dt < 1E-06 V/s
9.00974	0.00357666	7.7	78	7.629e-05
9.10974	0.00357971	7.8	79	2.03564e-05
9.20974	0.00357361	7.9	80	-0.000137341	dWE(1).Potential/dt < 1E-06 V/s
9.30974	0.00357666	8	81	0.000137328
9.40974	0.00356445	8.1	82	-0.000279734	dWE(1).Potential/dt < 1E-06 V/s
9.50974	0.00357056	8.2	83	0.000264475
9.60974	0.00355835	8.3	84	-0.00033569	dWE(1).Potential/dt < 1E-06 V/s
9.70974	0.00357666	8.4	85	0.000498448
9.80974	0.00357056	8.5	86	-0.000366202	dWE(1).Potential/dt < 1E-06 V/s
9.90974	0.00357971	8.6	87	0.000300088
10.0097	0.00358887	8.7	88	4.06817e-05
10.1097	0.0035553	8.8	89	-0.00069173	dWE(1).Potential/dt < 1E-06 V/s
10.2097	0.00357361	8.9	90	0.000757853
10.3097	0.00357056	9	91	-0.000381472	dWE(1).Potential/dt < 1E-06 V/s
10.4097	0.00355835	9.1	92	-0.000127157	dWE(1).Potential/dt < 1E-06 V/s
10.5097	0.0035675	9.2	93	0.000300088
10.6097	0.0035675	9.3	94	-0.000147497	dWE(1).Potential/dt < 1E-06 V/s
10.7097	0.0035614	9.4	95	-8.13813e-05	dWE(1).Potential/dt < 1E-06 V/s
10.8097	0.00354919	9.5	96	-0.000152579	dWE(1).Potential/dt < 1E-06 V/s
10.9097	0.00355835	9.6	97	0.000289904
11.0097	0.00356445	9.7	98	-3.55998e-05	dWE(1).Potential/dt < 1E-06 V/s
11.1097	0.0035675	9.8	99	1.52535e-05
11.2097	0.0035614	9.9	100	-0.000127153	dWE(1).Potential/dt < 1E-06 V/s
11.3097	0.00356445	10	101	0.000137337
11.4097	0.0035675	10.1	102	-1.00893e-08	dWE(1).Potential/dt < 1E-06 V/s
11.5097	0.00355835	10.2	103	-0.000193273	dWE(1).Potential/dt < 1E-06 V/s
11.6097	0.0035675	10.3	104	0.000284828
11.7097	0.0035614	10.4	105	-0.000249226	dWE(1).Potential/dt < 1E-06 V/s
11.8097	0.00357666	10.5	106	0.000381474
11.9097	0.0035614	10.6	107	-0.000478108	dWE(1).Potential/dt < 1E-06 V/s
12.0097	0.00355835	10.7	108	0.000172936
12.1097	0.0035675	10.8	109	0.000152583
12.2097	0.0035675	10.9	110	-0.000116979	dWE(1).Potential/dt < 1E-06 V/s
12.3097	0.0035675	11	111	3.05202e-05
12.4097	0.00355835	11.1	112	-0.000167847	dWE(1).Potential/dt < 1E-06 V/s
12.5097	0.0035675	11.2	113	0.000274655
12.6097	0.0035553	11.3	114	-0.000361121	dWE(1).Potential/dt < 1E-06 V/s
12.7097	0.00356445	11.4	115	0.000340781
12.8097	0.00354919	11.5	116	-0.000427251	dWE(1).Potential/dt < 1E-06 V/s
12.9097	0.0035614	11.6	117	0.000432326
13.0097	0.0035614	11.7	118	-0.00019327	dWE(1).Potential/dt < 1E-06 V/s
13.1097	0.0035614	11.8	119	4.0691e-05
13.2097	0.0035553	11.9	120	-0.000111894	dWE(1).Potential/dt < 1E-06 V/s
13.3097	0.0035614	12	121	0.0001831
13.4097	0.0035553	12.1	122	-0.000203443	dWE(1).Potential/dt < 1E-06 V/s
13.5097	0.00354614	12.2	123	-7.63001e-05	dWE(1).Potential/dt < 1E-06 V/s
13.6097	0.0035675	12.3	124	0.000478118
13.7097	0.00354919	12.4	125	-0.000615436	dWE(1).Potential/dt < 1E-06 V/s
13.8097	0.00356445	12.5	126	0.000564569
13.9097	0.0035675	12.6	127	-0.000183108	dWE(1).Potential/dt < 1E-06 V/s
14.0097	0.0035553	12.7	128	-0.000208531	dWE(1).Potential/dt < 1E-06 V/s
14.1097	0.00355225	12.8	129	9.66387e-05
14.2097	0.00354614	12.9	130	-0.000116984	dWE(1).Potential/dt < 1E-06 V/s
14.3097	0.00355835	13	131	0.000284836
14.4097	0.0035614	13.1	132	-0.00010682	dWE(1).Potential/dt < 1E-06 V/s
14.5097	0.00355225	13.2	133	-0.00016275	dWE(1).Potential/dt < 1E-06 V/s
14.6097	0.0035553	13.3	134	0.000172932
14.7097	0.0035614	13.4	135	4.57729e-05
14.8097	0.00357056	13.5	136	0.000106819
14.9097	0.00354919	13.6	137	-0.00047811	dWE(1).Potential/dt < 1E-06 V/s
15.0097	0.00356445	13.7	138	0.000559484
15.1097	0.0035553	13.8	139	-0.000417077	dWE(1).Potential/dt < 1E-06 V/s
15.2097	0.00354919	13.9	140	4.57823e-05
15.3097	0.00354004	14	141	-0.000127164	dWE(1).Potential/dt < 1E-06 V/s
15.4097	0.0035675	14.1	142	0.000590011
15.5097	0.0035614	14.2	143	-0.00046285	dWE(1).Potential/dt < 1E-06 V/s
15.6097	0.00354919	14.3	144	-6.10265e-05	dWE(1).Potential/dt < 1E-06 V/s
15.7097	0.00355835	14.4	145	0.000289904
15.8097	0.00354004	14.5	146	-0.000483193	dWE(1).Potential/dt < 1E-06 V/s
15.9097	0.00354614	14.6	147	0.000356037
16.0097	0.00352478	14.7	148	-0.000523877	dWE(1).Potential/dt < 1E-06 V/s
16.1097	0.00355835	14.8	149	0.000885005
16.2097	0.00354919	14.9	150	-0.000630696	dWE(1).Potential/dt < 1E-06 V/s
16.3097	0.00354004	15	151	5.08564e-05
16.4097	0.00354004	15.1	152	7.62978e-05
16.5097	0.00356445	15.2	153	0.000417076
16.6097	0.00353394	15.3	154	-0.000844324	dWE(1).Potential/dt < 1E-06 V/s
16.7097	0.00354309	15.4	155	0.00060526
16.8097	0.00354309	15.5	156	-0.000208537	dWE(1).Potential/dt < 1E-06 V/s
16.9097	0.00355225	15.6	157	0.000198364
17.0097	0.00354004	15.7	158	-0.000330603	dWE(1).Potential/dt < 1E-06 V/s
17.1097	0.00353699	15.8	159	0.000116984
17.2097	0.0035553	15.9	160	0.000330609
17.3097	0.00355835	16	161	-0.000167849	dWE(1).Potential/dt < 1E-06 V/s
17.4097	0.00353699	16.1	162	-0.000366212	dWE(1).Potential/dt < 1E-06 V/s
17.5097	0.00355225	16.2	163	0.000539149
17.6097	0.00354004	16.3	164	-0.000473021	dWE(1).Potential/dt < 1E-06 V/s
17.7097	0.00355225	16.4	165	0.000417073
17.8097	0.00354309	16.5	166	-0.000350951	dWE(1).Potential/dt < 1E-06 V/s
17.9097	0.00354004	16.6	167	9.1549e-05
18.0097	0.0035614	16.7	168	0.000396727
18.1097	0.00353088	16.8	169	-0.000818883	dWE(1).Potential/dt < 1E-06 V/s
18.2097	0.00355835	16.9	170	0.000930788
18.3097	0.00354309	17	171	-0.000701911	dWE(1).Potential/dt < 1E-06 V/s
18.4097	0.00354919	17.1	172	0.000381471
18.5097	0.00354919	17.2	173	-0.000122074	dWE(1).Potential/dt < 1E-06 V/s
18.6097	0.00353088	17.3	174	-0.000315354	dWE(1).Potential/dt < 1E-06 V/s
18.7097	0.00353699	17.4	175	0.000325533
18.8097	0.00354004	17.5	176	-7.62955e-05	dWE(1).Potential/dt < 1E-06 V/s
18.9097	0.00352783	17.6	177	-0.000239056	dWE(1).Potential/dt < 1E-06 V/s
19.0097	0.00355225	17.7	178	0.000600178
19.1097	0.0035553	17.8	179	-0.000269568	dWE(1).Potential/dt < 1E-06 V/s
19.2097	0.00352783	17.9	180	-0.000457766	dWE(1).Potential/dt < 1E-06 V/s
19.3097	0.0035553	18	181	0.000834144
19.4097	0.00355225	18.1	182	-0.000467934	dWE(1).Potential/dt < 1E-06 V/s
19.5097	0.00355225	18.2	183	0.00012716
19.6097	0.00354919	18.3	184	-6.61177e-05	dWE(1).Potential/dt < 1E-06 V/s
19.7097	0.00355225	18.4	185	9.15451e-05
19.8097	0.00354614	18.5	186	-0.000157671	dWE(1).Potential/dt < 1E-06 V/s
19.9097	0.0035553	18.6	187	0.000249233
20.0097	0.00353088	18.7	188	-0.000574754	dWE(1).Potential/dt < 1E-06 V/s
20.1097	0.00353088	18.8	189	0.000315354
20.2097	0.00352478	18.9	190	-0.000193274	dWE(1).Potential/dt < 1E-06 V/s
20.3097	0.0035614	19	191	0.000742588
20.4097	0.00353699	19.1	192	-0.000895173	dWE(1).Potential/dt < 1E-06 V/s
20.5097	0.00355225	19.2	193	0.000686645
20.6097	0.0035614	19.3	194	-9.15536e-05	dWE(1).Potential/dt < 1E-06 V/s
20.7097	0.00353394	19.4	195	-0.00055948	dWE(1).Potential/dt < 1E-06 V/s
20.8097	0.00355225	19.5	196	0.000686635
20.9097	0.00355225	19.6	197	-0.000305168	dWE(1).Potential/dt < 1E-06 V/s
21.0097	0.00355225	19.7	198	6.10373e-05
21.1097	0.00355225	19.8	199	2.32831e-09	dWE(1).Potential/dt < 1E-06 V/s
21.2097	0.00354919	19.9	200	-5.59453e-05	dWE(1).Potential/dt < 1E-06 V/s
21.3097	0.0035553	20	201	0.000147493
21.4097	0.00354919	20.1	202	-0.000193272	dWE(1).Potential/dt < 1E-06 V/s
21.5097	0.00355225	20.2	203	0.000147495
21.6097	0.00354309	20.3	204	-0.000223791	dWE(1).Potential/dt < 1E-06 V/s
21.7097	0.00354309	20.4	205	0.000116979
21.8097	0.00353699	20.5	206	-0.000142415	dWE(1).Potential/dt < 1E-06 V/s
21.9097	0.00353394	20.6	207	1.52652e-05
22.0097	0.00354614	20.7	208	0.000239043
22.1097	0.00353699	20.8	209	-0.000320422	dWE(1).Potential/dt < 1E-06 V/s
22.2097	0.00355835	20.9	210	0.000539141
22.3097	0.00354614	21	211	-0.000503546	dWE(1).Potential/dt < 1E-06 V/s
22.4097	0.00354614	21.1	212	0.000213629
22.5097	0.00355225	21.2	213	7.12128e-05
22.6097	0.00355225	21.3	214	-7.12074e-05	dWE(1).Potential/dt < 1E-06 V/s
22.7097	0.00354919	21.4	215	-3.55998e-05	dWE(1).Potential/dt < 1E-06 V/s
22.8097	0.00354004	21.5	216	-0.000132252	dWE(1).Potential/dt < 1E-06 V/s
22.9097	0.00353394	21.6	217	-1.52527e-05	dWE(1).Potential/dt < 1E-06 V/s
23.0097	0.0035614	21.7	218	0.00054422
23.1097	0.00354919	21.8	219	-0.000564561	dWE(1).Potential/dt < 1E-06 V/s
23.2097	0.00354309	21.9	220	0.000122058
23.3097	0.00354004	22	221	-2.54298e-05	dWE(1).Potential/dt < 1E-06 V/s
23.4097	0.00354004	22.1	222	1.52597e-05
23.5097	0.00355225	22.2	223	0.000213624
23.6097	0.00354614	22.3	224	-0.000254313	dWE(1).Potential/dt < 1E-06 V/s
23.7097	0.00354614	22.4	225	0.000111901
23.8097	0.00354614	22.5	226	-2.0344e-05	dWE(1).Potential/dt < 1E-06 V/s
23.9097	0.00354614	22.6	227	1.5522e-09	dWE(1).Potential/dt < 1E-06 V/s
24.0097	0.00355835	22.7	228	0.000223798
24.1097	0.00354309	22.8	229	-0.000422167	dWE(1).Potential/dt < 1E-06 V/s
24.2097	0.00353699	22.9	230	0.000106812
24.3097	0.00354919	23	231	0.000244147
24.4097	0.00354919	23.1	232	-0.000162766	dWE(1).Potential/dt < 1E-06 V/s
24.5097	0.00354919	23.2	233	4.06887e-05
24.6097	0.00354004	23.3	234	-0.000167851	dWE(1).Potential/dt < 1E-06 V/s
24.7097	0.00354614	23.4	235	0.00021871
24.8097	0.00354309	23.5	236	-0.000157668	dWE(1).Potential/dt < 1E-06 V/s
24.9097	0.00355835	23.6	237	0.000335686
25.0097	0.00354919	23.7	238	-0.000356037	dWE(1).Potential/dt < 1E-06 V/s
25.1097	0.0035553	23.8	239	0.000269566
25.2097	0.00354004	23.9	240	-0.000381466	dWE(1).Potential/dt < 1E-06 V/s
25.3097	0.00355835	24	241	0.000534056
25.4097	0.00354309	24.1	242	-0.000544234	dWE(1).Potential/dt < 1E-06 V/s
25.5097	0.00357056	24.2	243	0.000742593
25.6097	0.0035553	24.3	244	-0.00065104	dWE(1).Potential/dt < 1E-06 V/s
25.7097	0.00355225	24.4	245	0.000213624
25.8097	0.0035553	24.5	246	4.06926e-05
25.9097	0.00355225	24.6	247	-0.000101725	dWE(1).Potential/dt < 1E-06 V/s
26.0097	0.00353699	24.7	248	-0.000233964	dWE(1).Potential/dt < 1E-06 V/s
26.1097	0.00355835	24.8	249	0.000559489
26.2097	0.00355225	24.9	250	-0.00041199	dWE(1).Potential/dt < 1E-06 V/s
26.3097	0.0035553	25	251	0.000198368
26.4097	0.00355835	25.1	252	-2.32831e-09	dWE(1).Potential/dt < 1E-06 V/s
26.5097	0.00354309	25.2	253	-0.00030518	dWE(1).Potential/dt < 1E-06 V/s
26.6097	0.00354309	25.3	254	0.000188189
26.7097	0.00354309	25.4	255	-5.08649e-05	dWE(1).Potential/dt < 1E-06 V/s
26.8097	0.00355225	25.5	256	0.000167847
26.9097	0.00354919	25.6	257	-0.000162754	dWE(1).Potential/dt < 1E-06 V/s
27.0097	0.00355225	25.7	258	0.000122063
27.1097	0.00355225	25.8	259	-4.57691e-05	dWE(1).Potential/dt < 1E-06 V/s
27.2097	0.00353699	25.9	260	-0.00026957	dWE(1).Potential/dt < 1E-06 V/s
27.3097	0.00354614	26	261	0.000345864
27.4097	0.00354919	26.1	262	-0.000101717	dWE(1).Potential/dt < 1E-06 V/s
27.5097	0.0035614	26.2	263	0.000218695
27.6097	0.00354919	26.3	264	-0.000356024	dWE(1).Potential/dt < 1E-06 V/s
27.7097	0.00354309	26.4	265	7.11949e-05
27.8097	0.00353394	26.5	266	-0.000137325	dWE(1).Potential/dt < 1E-06 V/s
27.9097	0.0035675	26.6	267	0.000701899
28.0097	0.00354004	26.7	268	-0.000925693	dWE(1).Potential/dt < 1E-06 V/s
28.1097	0.00354919	26.8	269	0.00060018
28.2097	0.00354614	26.9	270	-0.000254323	dWE(1).Potential/dt < 1E-06 V/s
28.3097	0.00354004	27	271	-4.57652e-05	dWE(1).Potential/dt < 1E-06 V/s
28.4097	0.00354309	27.1	272	0.000116979
28.5097	0.00355225	27.2	273	0.000111897
28.6097	0.00354614	27.3	274	-0.000208535	dWE(1).Potential/dt < 1E-06 V/s
28.7097	0.0035553	27.4	275	0.000269578
28.8097	0.00354614	27.5	276	-0.00029501	dWE(1).Potential/dt < 1E-06 V/s
28.9097	0.00355225	27.6	277	0.000249236
29.0097	0.00354004	27.7	278	-0.000325522	dWE(1).Potential/dt < 1E-06 V/s
29.1097	0.00354004	27.8	279	0.000162759
29.2097	0.00353088	27.9	280	-0.000208539	dWE(1).Potential/dt < 1E-06 V/s
29.3097	0.00355225	28	281	0.000498462
29.4097	0.00354309	28.1	282	-0.000447594	dWE(1).Potential/dt < 1E-06 V/s
29.5097	0.00354309	28.2	283	0.000178015
29.6097	0.00354309	28.3	284	-3.05202e-05	dWE(1).Potential/dt < 1E-06 V/s
29.7097	0.00355225	28.4	285	0.000167847
29.8097	0.00353394	28.5	286	-0.000442498	dWE(1).Potential/dt < 1E-06 V/s
29.9097	0.00352783	28.6	287	0.000132233
30.0097	0.00353699	28.7	288	0.000178021
30.1097	0.00354919	28.8	289	9.66449e-05
30.2097	0.00354309	28.9	290	-0.000223805	dWE(1).Potential/dt < 1E-06 V/s
30.3097	0.00355225	29	291	0.000279747
30.4097	0.00353394	29.1	292	-0.000462844	dWE(1).Potential/dt < 1E-06 V/s
30.5097	0.00354309	29.2	293	0.000411977
30.6097	0.00353699	29.3	294	-0.000279742	dWE(1).Potential/dt < 1E-06 V/s
30.7097	0.00354309	29.4	295	0.000213625
30.8097	0.00355225	29.5	296	7.62916e-05
30.9097	0.00355225	29.6	297	-8.64616e-05	dWE(1).Potential/dt < 1E-06 V/s
31.0097	0.00354919	29.7	298	-2.54274e-05	dWE(1).Potential/dt < 1E-06 V/s
31.1097	0.00354919	29.8	299	3.55975e-05
31.2097	0.00355835	29.9	300	0.000157669
31.3097	0.00354004	30	301	-0.000442504	dWE(1).Potential/dt < 1E-06 V/s
31.4097	0.00354614	30.1	302	0.000356037
31.5097	0.00355225	30.2	303	-2.03362e-05	dWE(1).Potential/dt < 1E-06 V/s
31.6097	0.00355835	30.3	304	6.10327e-05
31.7097	0.00354004	30.4	305	-0.000386559	dWE(1).Potential/dt < 1E-06 V/s
31.8097	0.00354919	30.5	306	0.000401818
31.9097	0.00354309	30.6	307	-0.000279753	dWE(1).Potential/dt < 1E-06 V/s
32.0097	0.00354614	30.7	308	0.000157673
32.1097	0.00353394	30.8	309	-0.000279734	dWE(1).Potential/dt < 1E-06 V/s
32.2097	0.00354004	30.9	310	0.000264475
32.3097	0.0035553	31	311	0.000167851
[...]
45.8097	0.00353088	44.5	446	-2.0344e-05	dWE(1).Potential/dt < 1E-06 V/s
45.9097	0.00352478	44.6	447	-6.10288e-05	dWE(1).Potential/dt < 1E-06 V/s
46.0097	0.00354614	44.7	448	0.000442498
46.1097	0.00353088	44.8	449	-0.000549311	dWE(1).Potential/dt < 1E-06 V/s
46.2097	0.00354004	44.9	450	0.000417077
46.3097	0.00355225	45	451	6.61192e-05
46.4097	0.00355225	45.1	452	-0.000111894	dWE(1).Potential/dt < 1E-06 V/s
46.5097	0.00355225	45.2	453	4.06926e-05
46.6097	0.00353699	45.3	454	-0.000279742	dWE(1).Potential/dt < 1E-06 V/s
46.7097	0.00354919	45.4	455	0.000401818
46.8097	0.00353699	45.5	456	-0.000417081	dWE(1).Potential/dt < 1E-06 V/s
46.9097	0.00353699	45.6	457	0.000183113
47.0097	0.0035553	45.7	458	0.000295004
47.1097	0.00355835	45.8	459	-0.000157677	dWE(1).Potential/dt < 1E-06 V/s
47.2097	0.00355225	45.9	460	-8.64678e-05	dWE(1).Potential/dt < 1E-06 V/s
47.3097	0.0035553	46	461	0.000137333
47.4097	0.00354309	46.1	462	-0.000279747	dWE(1).Potential/dt < 1E-06 V/s
47.5097	0.00353699	46.2	463	4.06887e-05
47.6097	0.00354004	46.3	464	8.64702e-05
47.7097	0.00355835	46.4	465	0.000279742
47.8097	0.00354919	46.5	466	-0.000371297	dWE(1).Potential/dt < 1E-06 V/s
47.9097	0.00354309	46.6	467	5.59414e-05
48.0097	0.0035614	46.7	468	0.000376382
48.1097	0.00354614	46.8	469	-0.000513707	dWE(1).Potential/dt < 1E-06 V/s
48.2097	0.00353394	46.9	470	1.52652e-05
48.3097	0.00354614	47	471	0.000315335
48.4097	0.0035553	47.1	472	-1.52473e-05	dWE(1).Potential/dt < 1E-06 V/s
48.5097	0.00353699	47.2	473	-0.000401817	dWE(1).Potential/dt < 1E-06 V/s
48.6097	0.0035675	47.3	474	0.000803633
48.7097	0.00355225	47.4	475	-0.000696815	dWE(1).Potential/dt < 1E-06 V/s
48.8097	0.00354309	47.5	476	0.000111898
48.9097	0.00354614	47.6	477	0.000111891
49.0097	0.00354614	47.7	478	-6.61154e-05	dWE(1).Potential/dt < 1E-06 V/s
49.1097	0.0035553	47.8	479	0.000178023
49.2097	0.00354919	47.9	480	-0.00021871	dWE(1).Potential/dt < 1E-06 V/s
49.3097	0.00354614	48	481	4.57667e-05
49.4097	0.00354919	48.1	482	7.12213e-05
49.5097	0.0035553	48.2	483	6.61099e-05
49.6097	0.00354309	48.3	484	-0.000284828	dWE(1).Potential/dt < 1E-06 V/s
49.7097	0.00354614	48.4	485	0.000218704
49.8097	0.00354309	48.5	486	-0.000132235	dWE(1).Potential/dt < 1E-06 V/s
49.9097	0.0035614	48.6	487	0.000381461
50.0097	0.00354919	48.7	488	-0.00044758	dWE(1).Potential/dt < 1E-06 V/s
50.1097	0.0035553	48.8	489	0.000315337
50.2097	0.00354309	48.9	490	-0.00033569	dWE(1).Potential/dt < 1E-06 V/s
50.3097	0.0035553	49	491	0.000386553
50.4097	0.00354614	49.1	492	-0.000350953	dWE(1).Potential/dt < 1E-06 V/s
50.5097	0.00354919	49.2	493	0.000203461
50.6097	0.00354919	49.3	494	-6.61301e-05	dWE(1).Potential/dt < 1E-06 V/s
50.7097	0.00355225	49.4	495	6.61192e-05
50.8097	0.0035553	49.5	496	2.03509e-05
50.9097	0.00354309	49.6	497	-0.00024923	dWE(1).Potential/dt < 1E-06 V/s
51.0097	0.00355225	49.7	498	0.000320433
51.1097	0.00355225	49.8	499	-0.000147497	dWE(1).Potential/dt < 1E-06 V/s
51.2097	0.00355225	49.9	500	3.05202e-05
51.3097	0.0035614	50	501	0.000167845
51.4097	0.00354919	50.1	502	-0.000330598	dWE(1).Potential/dt < 1E-06 V/s
51.5097	0.00354919	50.2	503	0.000172924
51.6097	0.0035614	50.3	504	0.0001831
51.7097	0.0035553	50.4	505	-0.000254302	dWE(1).Potential/dt < 1E-06 V/s
51.8097	0.00353699	50.5	506	-0.000223798	dWE(1).Potential/dt < 1E-06 V/s
51.9097	0.00355835	50.6	507	0.000584922
52.0097	0.00354614	50.7	508	-0.000534064	dWE(1).Potential/dt < 1E-06 V/s
52.1097	0.00354614	50.8	509	0.000213629
52.2097	0.00354614	50.9	510	-4.06887e-05	dWE(1).Potential/dt < 1E-06 V/s
52.3097	0.0035614	51	511	0.000279746
52.4097	0.0035553	51.1	512	-0.000289913	dWE(1).Potential/dt < 1E-06 V/s
52.5097	0.00354004	51.2	513	-0.000157678	dWE(1).Potential/dt < 1E-06 V/s
52.6097	0.00354614	51.3	514	0.00026957
52.7097	0.00354004	51.4	515	-0.000233961	dWE(1).Potential/dt < 1E-06 V/s
52.8097	0.00354614	51.5	516	0.000203444
52.9097	0.00354309	51.6	517	-0.000147495	dWE(1).Potential/dt < 1E-06 V/s
53.0097	0.00354614	51.7	518	0.000111889
53.1097	0.00354614	51.8	519	-4.57698e-05	dWE(1).Potential/dt < 1E-06 V/s
53.2097	0.00356445	51.9	520	0.000345872
53.3097	0.00354919	52	521	-0.000493376	dWE(1).Potential/dt < 1E-06 V/s
53.4097	0.00355835	52.1	522	0.000406896
53.5097	0.0035553	52.2	523	-0.000213622	dWE(1).Potential/dt < 1E-06 V/s
53.6097	0.0035553	52.3	524	6.61223e-05
53.7097	0.0035553	52.4	525	-1.01724e-05	dWE(1).Potential/dt < 1E-06 V/s
53.8097	0.0035614	52.5	526	0.000111895
53.9097	0.00355225	52.6	527	-0.000239046	dWE(1).Potential/dt < 1E-06 V/s
54.0097	0.00355225	52.7	528	0.000127157
54.1097	0.00354004	52.8	529	-0.000254312	dWE(1).Potential/dt < 1E-06 V/s
54.2097	0.00354614	52.9	530	0.000254309
54.3097	0.00354614	53	531	-0.000111893	dWE(1).Potential/dt < 1E-06 V/s
54.4097	0.00355225	53.1	532	0.000132248
54.5097	0.00354309	53.2	533	-0.000239056	dWE(1).Potential/dt < 1E-06 V/s
54.6097	0.00354614	53.3	534	0.0001831
54.7097	0.00354614	53.4	535	-6.61154e-05	dWE(1).Potential/dt < 1E-06 V/s
54.8097	0.0035614	53.5	536	0.000289918
54.9097	0.00355835	53.6	537	-0.000233965	dWE(1).Potential/dt < 1E-06 V/s
55.0097	0.00355225	53.7	538	-2.5436e-05	dWE(1).Potential/dt < 1E-06 V/s
55.1097	0.00355835	53.8	539	0.000172936
55.2097	0.0035614	53.9	540	-3.56099e-05	dWE(1).Potential/dt < 1E-06 V/s
55.3097	0.00355835	54	541	-7.12004e-05	dWE(1).Potential/dt < 1E-06 V/s
55.4097	0.0035553	54.1	542	-1.01786e-05	dWE(1).Potential/dt < 1E-06 V/s
55.5097	0.00355225	54.2	543	-3.05148e-05	dWE(1).Potential/dt < 1E-06 V/s
55.6097	0.00354004	54.3	544	-0.000198362	dWE(1).Potential/dt < 1E-06 V/s
55.7097	0.0035614	54.4	545	0.000523881
55.8097	0.00354004	54.5	546	-0.000681552	dWE(1).Potential/dt < 1E-06 V/s
55.9097	0.00354614	54.6	547	0.000432326
56.0097	0.0035614	54.7	548	0.000137334
56.1097	0.00354309	54.8	549	-0.000493365	dWE(1).Potential/dt < 1E-06 V/s
56.2097	0.00354309	54.9	550	0.000264478
56.3097	0.00355225	55	551	0.000106812
56.4097	0.00355225	55.1	552	-0.000106806	dWE(1).Potential/dt < 1E-06 V/s
56.5097	0.00354614	55.2	553	-8.13813e-05	dWE(1).Potential/dt < 1E-06 V/s
56.6097	0.00354919	55.3	554	0.000127165
56.7097	0.00354309	55.4	555	-0.000167859	dWE(1).Potential/dt < 1E-06 V/s
56.8097	0.00355225	55.5	556	0.00024923
56.9097	0.00353699	55.6	557	-0.000406896	dWE(1).Potential/dt < 1E-06 V/s
57.0097	0.00357666	55.7	558	0.000935871
57.1097	0.00355225	55.8	559	-0.000961296	dWE(1).Potential/dt < 1E-06 V/s
57.2097	0.00353699	55.9	560	0.000137329
57.3097	0.0035553	56	561	0.000432334
57.4097	0.00354919	56.1	562	-0.000376382	dWE(1).Potential/dt < 1E-06 V/s
57.5097	0.00354309	56.2	563	2.03362e-05
57.6097	0.0035614	56.3	564	0.000386555
57.7097	0.0035675	56.4	565	-0.000122061	dWE(1).Potential/dt < 1E-06 V/s
57.8097	0.0035675	56.5	566	-1.01724e-05	dWE(1).Potential/dt < 1E-06 V/s
57.9097	0.00355225	56.6	567	-0.000259397	dWE(1).Potential/dt < 1E-06 V/s
58.0097	0.00354004	56.7	568	-4.57753e-05	dWE(1).Potential/dt < 1E-06 V/s
58.1097	0.00354004	56.8	569	9.15513e-05
58.2097	0.0035553	56.9	570	0.000239054
58.3097	0.0035553	57	571	-0.000178019	dWE(1).Potential/dt < 1E-06 V/s
58.4097	0.00354309	57.1	572	-0.000172934	dWE(1).Potential/dt < 1E-06 V/s
58.5097	0.00356445	57.2	573	0.000534058
58.6097	0.00354004	57.3	574	-0.000737514	dWE(1).Potential/dt < 1E-06 V/s
58.7097	0.00355835	57.4	575	0.000691734
58.8097	0.00354309	57.5	576	-0.000574752	dWE(1).Potential/dt < 1E-06 V/s
58.9097	0.00354309	57.6	577	0.000239052
59.0097	0.00354919	57.7	578	6.10365e-05
59.1097	0.00354309	57.8	579	-0.000183113	dWE(1).Potential/dt < 1E-06 V/s
59.2097	0.00354919	57.9	580	0.000203454
59.3097	0.0035553	58	581	2.03385e-05
59.4097	0.00353699	58.1	582	-0.000386551	dWE(1).Potential/dt < 1E-06 V/s
59.5097	0.00354614	58.2	583	0.000401814
59.6097	0.00354614	58.3	584	-0.000167843	dWE(1).Potential/dt < 1E-06 V/s
59.7097	0.00354919	58.4	585	8.64725e-05
59.8097	0.00353394	58.5	586	-0.000315357	dWE(1).Potential/dt < 1E-06 V/s
59.9097	0.0035614	58.6	587	0.000691726
60.0097	0.00354309	58.7	588	-0.000706981	dWE(1).Potential/dt < 1E-06 V/s
60.1097	0.00354309	58.8	589	0.000305168
60.2097	0.00354919	58.9	590	5.08642e-05
60.3097	0.00355835	59	591	9.66317e-05
60.4097	0.00355225	59.1	592	-0.000198362	dWE(1).Potential/dt < 1E-06 V/s
60.5097	0.00354919	59.2	593	4.57823e-05
60.6097	0.00354614	59.3	594	-4.07011e-05	dWE(1).Potential/dt < 1E-06 V/s
60.7097	0.00353394	59.4	595	-0.000198351	dWE(1).Potential/dt < 1E-06 V/s
60.8097	0.00354614	59.5	596	0.000356024
60.9097	0.0035553	59.6	597	-1.52473e-05	dWE(1).Potential/dt < 1E-06 V/s
61.0097	0.00354309	59.7	598	-0.000289922	dWE(1).Potential/dt < 1E-06 V/s
61.1097	0.00353088	59.8	599	-5.08673e-05	dWE(1).Potential/dt < 1E-06 V/s
61.2097	0.00354614	59.9	600	0.000381476