File: data/20200304/OCP_p27_1.txt
Time (s)	WE(1).Potential (V)	Corrected time (s)	Index	dWE(1).Potential/dt (V/s)	Cutoffs	OCP value (V)
1.27375	0.0303711	0	1	0	dWE(1).Potential/dt < 1E-06 V/s	0.0295971
1.37375	0.030368	0.1	2	-3.05287e-05	dWE(1).Potential/dt < 1E-06 V/s
1.47375	0.030365	0.2	3	-3.05008e-05	dWE(1).Potential/dt < 1E-06 V/s
1.57375	0.030368	0.3	4	8.13293e-05
1.67375	0.030365	0.4	5	-0.000101663	dWE(1).Potential/dt < 1E-06 V/s
1.77375	0.0303619	0.5	6	-1.01825e-05	dWE(1).Potential/dt < 1E-06 V/s
1.87375	0.0303589	0.6	7	-3.05846e-05	dWE(1).Potential/dt < 1E-06 V/s
1.97375	0.0303558	0.7	8	-3.04977e-05	dWE(1).Potential/dt < 1E-06 V/s
2.07375	0.0303589	0.8	9	8.13976e-05
2.17375	0.0303589	0.9	10	-4.58148e-05	dWE(1).Potential/dt < 1E-06 V/s
2.27375	0.0303528	1	11	-0.000101756	dWE(1).Potential/dt < 1E-06 V/s
2.37375	0.0303558	1.1	12	0.000127237
2.47375	0.0303558	1.2	13	-5.59476e-05	dWE(1).Potential/dt < 1E-06 V/s
2.57375	0.0303528	1.3	14	-4.57838e-05	dWE(1).Potential/dt < 1E-06 V/s
2.67375	0.0303497	1.4	15	-2.02966e-05	dWE(1).Potential/dt < 1E-06 V/s
2.77375	0.0303467	1.5	16	-3.05287e-05	dWE(1).Potential/dt < 1E-06 V/s
2.87375	0.0303497	1.6	17	8.13231e-05
2.97375	0.0303467	1.7	18	-0.000101676	dWE(1).Potential/dt < 1E-06 V/s
3.07375	0.0303436	1.8	19	-1.02445e-05	dWE(1).Potential/dt < 1E-06 V/s
3.17375	0.0303436	1.9	20	2.54313e-05
3.27375	0.0303406	2	21	-6.61239e-05	dWE(1).Potential/dt < 1E-06 V/s
3.37375	0.0303375	2.1	22	-2.03339e-05	dWE(1).Potential/dt < 1E-06 V/s
3.47375	0.0303406	2.2	23	8.1441e-05
3.57375	0.0303375	2.3	24	-0.000101756	dWE(1).Potential/dt < 1E-06 V/s
3.67375	0.0303375	2.4	25	4.58086e-05
3.77375	0.0303375	2.5	26	-1.01638e-05	dWE(1).Potential/dt < 1E-06 V/s
3.87375	0.0303375	2.6	27	1.24176e-08	dWE(1).Potential/dt < 1E-06 V/s
3.97375	0.0303345	2.7	28	-5.59166e-05	dWE(1).Potential/dt < 1E-06 V/s
4.07375	0.0303375	2.8	29	9.15055e-05
4.17375	0.0303284	2.9	30	-0.000213571	dWE(1).Potential/dt < 1E-06 V/s
4.27375	0.0303284	3	31	0.000116924
4.37375	0.0303253	3.1	32	-8.6464e-05	dWE(1).Potential/dt < 1E-06 V/s
4.47375	0.0303284	3.2	33	9.15738e-05
4.57375	0.0303223	3.3	34	-0.000157723	dWE(1).Potential/dt < 1E-06 V/s
4.67375	0.0303253	3.4	35	0.000137407
4.77375	0.0303253	3.5	36	-5.59476e-05	dWE(1).Potential/dt < 1E-06 V/s
4.87375	0.0303253	3.6	37	1.01949e-05
4.97375	0.0303192	3.7	38	-0.000111889	dWE(1).Potential/dt < 1E-06 V/s
5.07375	0.0303162	3.8	39	1.52675e-05
5.17375	0.0303162	3.9	40	1.52178e-05
5.27375	0.0303131	4	41	-6.61611e-05	dWE(1).Potential/dt < 1E-06 V/s
5.37375	0.0303131	4.1	42	3.56013e-05
5.47375	0.0303101	4.2	43	-6.61239e-05	dWE(1).Potential/dt < 1E-06 V/s
5.57375	0.0303101	4.3	44	3.56448e-05
5.67375	0.0303101	4.4	45	-1.01514e-05	dWE(1).Potential/dt < 1E-06 V/s
5.77375	0.030304	4.5	46	-0.000111889	dWE(1).Potential/dt < 1E-06 V/s
5.87375	0.030307	4.6	47	0.000127126
5.97375	0.0302979	4.7	48	-0.000223747	dWE(1).Potential/dt < 1E-06 V/s
6.07375	0.0303009	4.8	49	0.000172903
6.17375	0.0303009	4.9	50	-6.61487e-05	dWE(1).Potential/dt < 1E-06 V/s
6.27375	0.0302979	5	51	-4.58148e-05	dWE(1).Potential/dt < 1E-06 V/s
6.37375	0.0302979	5.1	52	3.56013e-05
6.47375	0.0302948	5.2	53	-6.61239e-05	dWE(1).Potential/dt < 1E-06 V/s
6.57375	0.0302948	5.3	54	3.56448e-05
6.67375	0.0302948	5.4	55	-1.01514e-05	dWE(1).Potential/dt < 1E-06 V/s
6.77375	0.0302948	5.5	56	1.86264e-08	dWE(1).Potential/dt < 1E-06 V/s
6.87375	0.0302887	5.6	57	-0.000111889	dWE(1).Potential/dt < 1E-06 V/s
6.97375	0.0302856	5.7	58	1.52675e-05
7.07375	0.0302887	5.8	59	7.11468e-05
7.17375	0.0302887	5.9	60	-4.57466e-05	dWE(1).Potential/dt < 1E-06 V/s
7.27375	0.0302856	6	61	-4.5759e-05	dWE(1).Potential/dt < 1E-06 V/s
7.37375	0.0302826	6.1	62	-2.04146e-05	dWE(1).Potential/dt < 1E-06 V/s
7.47375	0.0302795	6.2	63	-3.04977e-05	dWE(1).Potential/dt < 1E-06 V/s
7.57375	0.0302795	6.3	64	2.54686e-05
7.67375	0.0302765	6.4	65	-6.61301e-05	dWE(1).Potential/dt < 1E-06 V/s
7.77375	0.0302765	6.5	66	3.56324e-05
7.87375	0.0302734	6.6	67	-6.60928e-05	dWE(1).Potential/dt < 1E-06 V/s
7.97375	0.0302765	6.7	68	9.15055e-05
8.07375	0.0302734	6.8	69	-0.000101663	dWE(1).Potential/dt < 1E-06 V/s
8.17375	0.0302704	6.9	70	-1.01825e-05	dWE(1).Potential/dt < 1E-06 V/s
8.27375	0.0302673	7	71	-3.05846e-05	dWE(1).Potential/dt < 1E-06 V/s
8.37375	0.0302673	7.1	72	2.54313e-05
8.47375	0.0302643	7.2	73	-6.61239e-05	dWE(1).Potential/dt < 1E-06 V/s
8.57375	0.0302643	7.3	74	3.56448e-05
8.67375	0.0302612	7.4	75	-6.61301e-05	dWE(1).Potential/dt < 1E-06 V/s
8.77375	0.0302612	7.5	76	3.56324e-05
8.87375	0.0302551	7.6	77	-0.000122022	dWE(1).Potential/dt < 1E-06 V/s
8.97375	0.0302551	7.7	78	7.11406e-05
9.07375	0.0302521	7.8	79	-7.63312e-05	dWE(1).Potential/dt < 1E-06 V/s
9.17375	0.0302551	7.9	80	9.158e-05
9.27375	0.0302521	8	81	-0.000101787	dWE(1).Potential/dt < 1E-06 V/s
9.37375	0.0302551	8.1	82	0.000101756
9.47375	0.0302551	8.2	83	-4.58086e-05	dWE(1).Potential/dt < 1E-06 V/s
9.57375	0.0302551	8.3	84	1.01638e-05
9.67375	0.030249	8.4	85	-0.00011192	dWE(1).Potential/dt < 1E-06 V/s
9.77375	0.030246	8.5	86	1.52861e-05
9.87375	0.030246	8.6	87	1.52861e-05
9.97375	0.0302429	8.7	88	-6.60928e-05	dWE(1).Potential/dt < 1E-06 V/s
10.0737	0.0302429	8.8	89	3.55765e-05
10.1737	0.0302399	8.9	90	-6.60991e-05	dWE(1).Potential/dt < 1E-06 V/s
10.2737	0.0302429	9	91	9.14931e-05
10.3737	0.0302399	9.1	92	-0.000101676	dWE(1).Potential/dt < 1E-06 V/s
10.4737	0.0302429	9.2	93	0.000101663
10.5737	0.0302368	9.3	94	-0.000157654	dWE(1).Potential/dt < 1E-06 V/s
10.6737	0.0302368	9.4	95	8.13479e-05
10.7737	0.0302338	9.5	96	-7.62939e-05	dWE(1).Potential/dt < 1E-06 V/s
10.8737	0.0302338	9.6	97	3.56448e-05
10.9737	0.0302307	9.7	98	-6.61301e-05	dWE(1).Potential/dt < 1E-06 V/s
11.0737	0.0302307	9.8	99	3.56324e-05
11.1737	0.0302338	9.9	100	4.58148e-05
11.2737	0.0302277	10	101	-0.000147509	dWE(1).Potential/dt < 1E-06 V/s
11.3737	0.0302277	10.1	102	8.13727e-05
11.4737	0.0302246	10.2	103	-7.62753e-05	dWE(1).Potential/dt < 1E-06 V/s
11.5737	0.0302246	10.3	104	3.55641e-05
11.6737	0.0302185	10.4	105	-0.00012209	dWE(1).Potential/dt < 1E-06 V/s
11.7737	0.0302216	10.5	106	0.000127194
11.8737	0.0302185	10.6	107	-0.00011192	dWE(1).Potential/dt < 1E-06 V/s
11.9737	0.0302185	10.7	108	4.58148e-05
12.0737	0.0302185	10.8	109	-1.01514e-05	dWE(1).Potential/dt < 1E-06 V/s
12.1737	0.0302124	10.9	110	-0.000111889	dWE(1).Potential/dt < 1E-06 V/s
12.2737	0.0302155	11	111	0.000127126
12.3737	0.0302124	11.1	112	-0.000111839	dWE(1).Potential/dt < 1E-06 V/s
12.4737	0.0302094	11.2	113	-1.01825e-05	dWE(1).Potential/dt < 1E-06 V/s
12.5737	0.0302094	11.3	114	2.53941e-05
12.6737	0.0302063	11.4	115	-6.61611e-05	dWE(1).Potential/dt < 1E-06 V/s
12.7737	0.0302094	11.5	116	9.158e-05
12.8737	0.0302032	11.6	117	-0.000157716	dWE(1).Potential/dt < 1E-06 V/s
12.9737	0.0302063	11.7	118	0.00013737
13.0737	0.0302032	11.8	119	-0.00011192	dWE(1).Potential/dt < 1E-06 V/s
13.1737	0.0302063	11.9	120	0.000101744
13.2737	0.0301941	12	121	-0.000269581	dWE(1).Potential/dt < 1E-06 V/s
13.3737	0.0301971	12.1	122	0.000208486
13.4737	0.0302002	12.2	123	-2.03339e-05	dWE(1).Potential/dt < 1E-06 V/s
13.5737	0.0301971	12.3	124	-8.13231e-05	dWE(1).Potential/dt < 1E-06 V/s
13.6737	0.0301941	12.4	125	-1.01825e-05	dWE(1).Potential/dt < 1E-06 V/s
13.7737	0.0301941	12.5	126	2.53941e-05
13.8737	0.030191	12.6	127	-6.61611e-05	dWE(1).Potential/dt < 1E-06 V/s
13.9737	0.030191	12.7	128	3.56013e-05
14.0737	0.030188	12.8	129	-6.61239e-05	dWE(1).Potential/dt < 1E-06 V/s
14.1737	0.0301849	12.9	130	-2.03339e-05	dWE(1).Potential/dt < 1E-06 V/s
14.2737	0.0301849	13	131	2.54624e-05
14.3737	0.0301849	13.1	132	-1.01638e-05	dWE(1).Potential/dt < 1E-06 V/s
14.4737	0.0301849	13.2	133	1.24176e-08	dWE(1).Potential/dt < 1E-06 V/s
14.5737	0.0301849	13.3	134	1.24176e-08	dWE(1).Potential/dt < 1E-06 V/s
14.6737	0.0301819	13.4	135	-5.59166e-05	dWE(1).Potential/dt < 1E-06 V/s
14.7737	0.0301788	13.5	136	-2.03525e-05	dWE(1).Potential/dt < 1E-06 V/s
14.8737	0.0301788	13.6	137	2.53941e-05
14.9737	0.0301758	13.7	138	-6.61611e-05	dWE(1).Potential/dt < 1E-06 V/s
15.0737	0.0301758	13.8	139	3.56013e-05
15.1737	0.0301758	13.9	140	-1.01949e-05	dWE(1).Potential/dt < 1E-06 V/s
15.2737	0.0301727	14	141	-5.59476e-05	dWE(1).Potential/dt < 1E-06 V/s
15.3737	0.0301697	14.1	142	-2.03339e-05	dWE(1).Potential/dt < 1E-06 V/s
15.4737	0.0301727	14.2	143	8.1441e-05
15.5737	0.0301697	14.3	144	-0.000101756	dWE(1).Potential/dt < 1E-06 V/s
15.6737	0.0301666	14.4	145	-1.01204e-05	dWE(1).Potential/dt < 1E-06 V/s
15.7737	0.0301636	14.5	146	-3.05287e-05	dWE(1).Potential/dt < 1E-06 V/s
15.8737	0.0301666	14.6	147	8.13231e-05
15.9737	0.0301636	14.7	148	-0.000101676	dWE(1).Potential/dt < 1E-06 V/s
16.0737	0.0301636	14.8	149	4.57341e-05
16.1737	0.0301575	14.9	150	-0.00012209	dWE(1).Potential/dt < 1E-06 V/s
16.2737	0.0301636	15	151	0.000183172
16.3737	0.0301575	15.1	152	-0.000203513	dWE(1).Potential/dt < 1E-06 V/s
16.4737	0.0301605	15.2	153	0.00014754
16.5737	0.0301575	15.3	154	-0.00011192	dWE(1).Potential/dt < 1E-06 V/s
16.6737	0.0301575	15.4	155	4.58148e-05
16.7737	0.0301575	15.5	156	-1.01514e-05	dWE(1).Potential/dt < 1E-06 V/s
16.8737	0.0301544	15.6	157	-5.59601e-05	dWE(1).Potential/dt < 1E-06 V/s
16.9737	0.0301483	15.7	158	-7.62256e-05	dWE(1).Potential/dt < 1E-06 V/s
17.0737	0.0301514	15.8	159	0.000116893
17.1737	0.0301483	15.9	160	-0.000111846	dWE(1).Potential/dt < 1E-06 V/s
17.2737	0.0301453	16	161	-1.02445e-05	dWE(1).Potential/dt < 1E-06 V/s
17.3737	0.0301392	16.1	162	-8.64764e-05	dWE(1).Potential/dt < 1E-06 V/s
17.4737	0.0301453	16.2	163	0.00017299
17.5737	0.0301392	16.3	164	-0.000203519	dWE(1).Potential/dt < 1E-06 V/s
17.6737	0.0301392	16.4	165	9.16049e-05
17.7737	0.0301361	16.5	166	-7.62629e-05	dWE(1).Potential/dt < 1E-06 V/s
17.8737	0.0301361	16.6	167	3.55765e-05
17.9737	0.0301361	16.7	168	-1.017e-05	dWE(1).Potential/dt < 1E-06 V/s
18.0737	0.0301331	16.8	169	-5.5929e-05	dWE(1).Potential/dt < 1E-06 V/s
18.1737	0.0301331	16.9	170	3.55641e-05
18.2737	0.030127	17	171	-0.00012209	dWE(1).Potential/dt < 1E-06 V/s
18.3737	0.030127	17.1	172	7.12648e-05
18.4737	0.030127	17.2	173	-2.03277e-05	dWE(1).Potential/dt < 1E-06 V/s
18.5737	0.030127	17.3	174	1.86264e-08	dWE(1).Potential/dt < 1E-06 V/s
18.6737	0.0301239	17.4	175	-5.59601e-05	dWE(1).Potential/dt < 1E-06 V/s
18.7737	0.0301208	17.5	176	-2.02966e-05	dWE(1).Potential/dt < 1E-06 V/s
18.8737	0.0301208	17.6	177	2.54003e-05
18.9737	0.030127	17.7	178	0.000101738
19.0737	0.0301208	17.8	179	-0.000183086	dWE(1).Potential/dt < 1E-06 V/s
19.1737	0.0301208	17.9	180	9.15428e-05
19.2737	0.0301178	18	181	-7.62753e-05	dWE(1).Potential/dt < 1E-06 V/s
19.3737	0.0301147	18.1	182	-2.04146e-05	dWE(1).Potential/dt < 1E-06 V/s
19.4737	0.0301147	18.2	183	2.54313e-05
19.5737	0.0301147	18.3	184	-1.01949e-05	dWE(1).Potential/dt < 1E-06 V/s
19.6737	0.0301147	18.4	185	-1.86264e-08	dWE(1).Potential/dt < 1E-06 V/s
19.7737	0.0301086	18.5	186	-0.000111926	dWE(1).Potential/dt < 1E-06 V/s
19.8737	0.0301086	18.6	187	7.12586e-05
19.9737	0.0301086	18.7	188	-2.03339e-05	dWE(1).Potential/dt < 1E-06 V/s
20.0737	0.0301117	18.8	189	5.59911e-05
20.1737	0.0301086	18.9	190	-9.158e-05	dWE(1).Potential/dt < 1E-06 V/s
20.2737	0.0301056	19	191	-1.01204e-05	dWE(1).Potential/dt < 1E-06 V/s
20.3737	0.0301086	19.1	192	8.13293e-05
20.4737	0.0300995	19.2	193	-0.000213571	dWE(1).Potential/dt < 1E-06 V/s
20.5737	0.0300964	19.3	194	6.09954e-05
20.6737	0.0300995	19.4	195	6.10575e-05
20.7737	0.0301025	19.5	196	1.01638e-05
20.8737	0.0300995	19.6	197	-8.1441e-05	dWE(1).Potential/dt < 1E-06 V/s
20.9737	0.0300995	19.7	198	4.57776e-05
21.0737	0.0300934	19.8	199	-0.000122103	dWE(1).Potential/dt < 1E-06 V/s
21.1737	0.0300964	19.9	200	0.000127237
21.2737	0.0300934	20	201	-0.000111926	dWE(1).Potential/dt < 1E-06 V/s
21.3737	0.0300903	20.1	202	-1.01204e-05	dWE(1).Potential/dt < 1E-06 V/s
21.4737	0.0300903	20.2	203	2.54003e-05
21.5737	0.0300903	20.3	204	-1.017e-05	dWE(1).Potential/dt < 1E-06 V/s
21.6737	0.0300873	20.4	205	-5.5929e-05	dWE(1).Potential/dt < 1E-06 V/s
21.7737	0.0300873	20.5	206	3.55641e-05
21.8737	0.0300842	20.6	207	-6.61611e-05	dWE(1).Potential/dt < 1E-06 V/s
21.9737	0.0300842	20.7	208	3.56013e-05
22.0737	0.0300842	20.8	209	-1.01949e-05	dWE(1).Potential/dt < 1E-06 V/s
22.1737	0.0300812	20.9	210	-5.59476e-05	dWE(1).Potential/dt < 1E-06 V/s
22.2737	0.0300781	21	211	-2.03339e-05	dWE(1).Potential/dt < 1E-06 V/s
22.3737	0.0300781	21.1	212	2.54624e-05
22.4737	0.0300781	21.2	213	-1.01638e-05	dWE(1).Potential/dt < 1E-06 V/s
22.5737	0.0300781	21.3	214	1.24176e-08	dWE(1).Potential/dt < 1E-06 V/s
22.6737	0.0300781	21.4	215	1.24176e-08	dWE(1).Potential/dt < 1E-06 V/s
22.7737	0.030072	21.5	216	-0.000111846	dWE(1).Potential/dt < 1E-06 V/s
22.8737	0.030072	21.6	217	7.11406e-05
22.9737	0.0300751	21.7	218	3.55765e-05
23.0737	0.0300781	21.8	219	2.03525e-05
23.1737	0.030072	21.9	220	-0.000137252	dWE(1).Potential/dt < 1E-06 V/s
23.2737	0.030072	22	221	8.13107e-05
23.3737	0.0300659	22.1	222	-0.00013226	dWE(1).Potential/dt < 1E-06 V/s
23.4737	0.0300598	22.2	223	-4.06429e-05	dWE(1).Potential/dt < 1E-06 V/s
23.5737	0.0300629	22.3	224	0.000106779
23.6737	0.0300659	22.4	225	6.8297e-08	dWE(1).Potential/dt < 1E-06 V/s
23.7737	0.0300598	22.5	226	-0.000137339	dWE(1).Potential/dt < 1E-06 V/s
23.8737	0.0300629	22.6	227	0.000137302
23.9737	0.0300629	22.7	228	-5.59104e-05	dWE(1).Potential/dt < 1E-06 V/s
24.0737	0.0300598	22.8	229	-4.57466e-05	dWE(1).Potential/dt < 1E-06 V/s
24.1737	0.0300568	22.9	230	-2.03525e-05	dWE(1).Potential/dt < 1E-06 V/s
24.2737	0.0300598	23	231	8.13231e-05
24.3737	0.0300537	23.1	232	-0.000157654	dWE(1).Potential/dt < 1E-06 V/s
24.4737	0.0300568	23.2	233	0.000137327
24.5737	0.0300568	23.3	234	-5.59787e-05	dWE(1).Potential/dt < 1E-06 V/s
24.6737	0.0300507	23.4	235	-0.000101744	dWE(1).Potential/dt < 1E-06 V/s
24.7737	0.0300537	23.5	236	0.000127194
24.8737	0.0300476	23.6	237	-0.000167899	dWE(1).Potential/dt < 1E-06 V/s
24.9737	0.0300476	23.7	238	8.14286e-05
25.0737	0.0300446	23.8	239	-7.62629e-05	dWE(1).Potential/dt < 1E-06 V/s
25.1737	0.0300446	23.9	240	3.55765e-05
25.2737	0.0300415	24	241	-6.60991e-05	dWE(1).Potential/dt < 1E-06 V/s
25.3737	0.0300446	24.1	242	9.14931e-05
25.4737	0.0300354	24.2	243	-0.000213583	dWE(1).Potential/dt < 1E-06 V/s
25.5737	0.0300415	24.3	244	0.000228919
25.6737	0.0300446	24.4	245	-4.58459e-05	dWE(1).Potential/dt < 1E-06 V/s
25.7737	0.0300385	24.5	246	-0.000127138	dWE(1).Potential/dt < 1E-06 V/s
25.8737	0.0300323	24.6	247	-3.05598e-05	dWE(1).Potential/dt < 1E-06 V/s
25.9737	0.0300354	24.7	248	0.000106891
26.0737	0.0300354	24.8	249	-5.59476e-05	dWE(1).Potential/dt < 1E-06 V/s
26.1737	0.0300323	24.9	250	-4.57838e-05	dWE(1).Potential/dt < 1E-06 V/s
26.2737	0.0300293	25	251	-2.02966e-05	dWE(1).Potential/dt < 1E-06 V/s
26.3737	0.0300262	25.1	252	-3.05287e-05	dWE(1).Potential/dt < 1E-06 V/s
26.4737	0.0300293	25.2	253	8.13231e-05
26.5737	0.0300232	25.3	254	-0.000157654	dWE(1).Potential/dt < 1E-06 V/s
26.6737	0.0300262	25.4	255	0.000137327
26.7737	0.0300232	25.5	256	-0.000111957	dWE(1).Potential/dt < 1E-06 V/s
26.8737	0.0300232	25.6	257	4.57776e-05
26.9737	0.0300201	25.7	258	-6.61239e-05	dWE(1).Potential/dt < 1E-06 V/s
27.0737	0.0300201	25.8	259	3.56448e-05
27.1737	0.0300171	25.9	260	-6.61301e-05	dWE(1).Potential/dt < 1E-06 V/s
27.2737	0.0300201	26	261	9.16111e-05
27.3737	0.030014	26.1	262	-0.000157685	dWE(1).Potential/dt < 1E-06 V/s
27.4737	0.030014	26.2	263	8.13727e-05
27.5737	0.030014	26.3	264	-2.03463e-05	dWE(1).Potential/dt < 1E-06 V/s
27.6737	0.030011	26.4	265	-5.5929e-05	dWE(1).Potential/dt < 1E-06 V/s
27.7737	0.030011	26.5	266	3.55641e-05
27.8737	0.0300079	26.6	267	-6.61611e-05	dWE(1).Potential/dt < 1E-06 V/s
27.9737	0.0300079	26.7	268	3.56013e-05
28.0737	0.0300018	26.8	269	-0.000122103	dWE(1).Potential/dt < 1E-06 V/s
28.1737	0.0300049	26.9	270	0.000127237
28.2737	0.0300018	27	271	-0.000111926	dWE(1).Potential/dt < 1E-06 V/s
28.3737	0.0300049	27.1	272	0.000101787
28.4737	0.0300018	27.2	273	-0.000101756	dWE(1).Potential/dt < 1E-06 V/s
28.5737	0.0299988	27.3	274	-1.01204e-05	dWE(1).Potential/dt < 1E-06 V/s
28.6737	0.0299988	27.4	275	2.54003e-05
28.7737	0.0299957	27.5	276	-6.60991e-05	dWE(1).Potential/dt < 1E-06 V/s
28.8737	0.0299988	27.6	277	9.14931e-05
28.9737	0.0299957	27.7	278	-0.000101676	dWE(1).Potential/dt < 1E-06 V/s
29.0737	0.0299957	27.8	279	4.57341e-05
29.1737	0.0299988	27.9	280	4.57466e-05
29.2737	0.0299927	28	281	-0.000147484	dWE(1).Potential/dt < 1E-06 V/s
29.3737	0.0299927	28.1	282	8.13479e-05
29.4737	0.0299927	28.2	283	-2.03649e-05	dWE(1).Potential/dt < 1E-06 V/s
29.5737	0.0299896	28.3	284	-5.59476e-05	dWE(1).Potential/dt < 1E-06 V/s
29.6737	0.0299835	28.4	285	-7.62629e-05	dWE(1).Potential/dt < 1E-06 V/s
29.7737	0.0299835	28.5	286	6.10265e-05
29.8737	0.0299805	28.6	287	-7.62753e-05	dWE(1).Potential/dt < 1E-06 V/s
29.9737	0.0299805	28.7	288	3.55641e-05
30.0737	0.0299835	28.8	289	4.57466e-05
30.1737	0.0299805	28.9	290	-9.15055e-05	dWE(1).Potential/dt < 1E-06 V/s
30.2737	0.0299805	29	291	4.57341e-05
30.3737	0.0299774	29.1	292	-6.61611e-05	dWE(1).Potential/dt < 1E-06 V/s
30.4737	0.0299774	29.2	293	3.56013e-05
30.5737	0.0299774	29.3	294	-1.01949e-05	dWE(1).Potential/dt < 1E-06 V/s
30.6737	0.0299744	29.4	295	-5.59476e-05	dWE(1).Potential/dt < 1E-06 V/s
30.7737	0.0299744	29.5	296	3.56448e-05
30.8737	0.0299683	29.6	297	-0.000122059	dWE(1).Potential/dt < 1E-06 V/s
30.9737	0.0299713	29.7	298	0.000127126
[...]
46.7737	0.0297546	45.5	456	-4.06429e-05	dWE(1).Potential/dt < 1E-06 V/s
46.8737	0.0297485	45.6	457	-8.65074e-05	dWE(1).Potential/dt < 1E-06 V/s
46.9737	0.0297516	45.7	458	0.000116987
47.0737	0.0297516	45.8	459	-5.59787e-05	dWE(1).Potential/dt < 1E-06 V/s
47.1737	0.0297516	45.9	460	1.01638e-05
47.2737	0.0297516	46	461	-1.24176e-08	dWE(1).Potential/dt < 1E-06 V/s
47.3737	0.0297485	46.1	462	-5.59911e-05	dWE(1).Potential/dt < 1E-06 V/s
47.4737	0.0297455	46.2	463	-2.03277e-05	dWE(1).Potential/dt < 1E-06 V/s
47.5737	0.0297455	46.3	464	2.54686e-05
47.6737	0.0297394	46.4	465	-0.000122059	dWE(1).Potential/dt < 1E-06 V/s
47.7737	0.0297424	46.5	466	0.000127126
47.8737	0.0297394	46.6	467	-0.000111839	dWE(1).Potential/dt < 1E-06 V/s
47.9737	0.0297424	46.7	468	0.000101676
48.0737	0.0297394	46.8	469	-0.000101663	dWE(1).Potential/dt < 1E-06 V/s
48.1737	0.0297394	46.9	470	4.57466e-05
48.2737	0.0297363	47	471	-6.60991e-05	dWE(1).Potential/dt < 1E-06 V/s
48.3737	0.0297333	47.1	472	-2.04146e-05	dWE(1).Potential/dt < 1E-06 V/s
48.4737	0.0297302	47.2	473	-3.04977e-05	dWE(1).Potential/dt < 1E-06 V/s
48.5737	0.0297241	47.3	474	-8.64391e-05	dWE(1).Potential/dt < 1E-06 V/s
48.6737	0.0297272	47.4	475	0.000116955
48.7737	0.0297302	47.5	476	6.8297e-08	dWE(1).Potential/dt < 1E-06 V/s
48.8737	0.0297241	47.6	477	-0.000137339	dWE(1).Potential/dt < 1E-06 V/s
48.9737	0.0297241	47.7	478	8.13727e-05
49.0737	0.0297272	47.8	479	3.55827e-05
49.1737	0.0297241	47.9	480	-9.14931e-05	dWE(1).Potential/dt < 1E-06 V/s
49.2737	0.0297241	48	481	4.57466e-05
49.3737	0.0297211	48.1	482	-6.60991e-05	dWE(1).Potential/dt < 1E-06 V/s
49.4737	0.0297211	48.2	483	3.55641e-05
49.5737	0.0297211	48.3	484	-1.01825e-05	dWE(1).Potential/dt < 1E-06 V/s
49.6737	0.029715	48.4	485	-0.00011192	dWE(1).Potential/dt < 1E-06 V/s
49.7737	0.029715	48.5	486	7.12648e-05
49.8737	0.029715	48.6	487	-2.03277e-05	dWE(1).Potential/dt < 1E-06 V/s
49.9737	0.029718	48.7	488	5.59476e-05
50.0737	0.029715	48.8	489	-9.15738e-05	dWE(1).Potential/dt < 1E-06 V/s
50.1737	0.0297089	48.9	490	-6.60928e-05	dWE(1).Potential/dt < 1E-06 V/s
50.2737	0.0297089	49	491	6.10265e-05
50.3737	0.0297058	49.1	492	-7.62753e-05	dWE(1).Potential/dt < 1E-06 V/s
50.4737	0.0297028	49.2	493	-2.04146e-05	dWE(1).Potential/dt < 1E-06 V/s
50.5737	0.0297089	49.3	494	0.000137339
50.6737	0.0297058	49.4	495	-0.000137302	dWE(1).Potential/dt < 1E-06 V/s
50.7737	0.0297028	49.5	496	-6.8297e-08	dWE(1).Potential/dt < 1E-06 V/s
50.8737	0.0296997	49.6	497	-3.04977e-05	dWE(1).Potential/dt < 1E-06 V/s
50.9737	0.0296997	49.7	498	2.54686e-05
51.0737	0.0296997	49.8	499	-1.01514e-05	dWE(1).Potential/dt < 1E-06 V/s
51.1737	0.0296967	49.9	500	-5.59601e-05	dWE(1).Potential/dt < 1E-06 V/s
51.2737	0.0296936	50	501	-2.02966e-05	dWE(1).Potential/dt < 1E-06 V/s
51.3737	0.0296936	50.1	502	2.54003e-05
51.4737	0.0296906	50.2	503	-6.60991e-05	dWE(1).Potential/dt < 1E-06 V/s
51.5737	0.0296936	50.3	504	9.14931e-05
51.6737	0.0296906	50.4	505	-0.000101676	dWE(1).Potential/dt < 1E-06 V/s
51.7737	0.0296875	50.5	506	-1.02445e-05	dWE(1).Potential/dt < 1E-06 V/s
51.8737	0.0296875	50.6	507	2.54313e-05
51.9737	0.0296875	50.7	508	-1.01949e-05	dWE(1).Potential/dt < 1E-06 V/s
52.0737	0.0296844	50.8	509	-5.59476e-05	dWE(1).Potential/dt < 1E-06 V/s
52.1737	0.0296844	50.9	510	3.56448e-05
52.2737	0.0296844	51	511	-1.01514e-05	dWE(1).Potential/dt < 1E-06 V/s
52.3737	0.0296814	51.1	512	-5.59601e-05	dWE(1).Potential/dt < 1E-06 V/s
52.4737	0.0296814	51.2	513	3.56324e-05
52.5737	0.0296814	51.3	514	-1.01638e-05	dWE(1).Potential/dt < 1E-06 V/s
52.6737	0.0296753	51.4	515	-0.000111846	dWE(1).Potential/dt < 1E-06 V/s
52.7737	0.0296753	51.5	516	7.11406e-05
52.8737	0.0296753	51.6	517	-2.03525e-05	dWE(1).Potential/dt < 1E-06 V/s
52.9737	0.0296753	51.7	518	-1.24176e-08	dWE(1).Potential/dt < 1E-06 V/s
53.0737	0.0296692	51.8	519	-0.00011192	dWE(1).Potential/dt < 1E-06 V/s
53.1737	0.0296692	51.9	520	7.12648e-05
53.2737	0.0296661	52	521	-7.63063e-05	dWE(1).Potential/dt < 1E-06 V/s
53.3737	0.0296692	52.1	522	9.16111e-05
53.4737	0.0296631	52.2	523	-0.000157685	dWE(1).Potential/dt < 1E-06 V/s
53.5737	0.0296631	52.3	524	8.13727e-05
53.6737	0.0296631	52.4	525	-2.03463e-05	dWE(1).Potential/dt < 1E-06 V/s
53.7737	0.02966	52.5	526	-5.5929e-05	dWE(1).Potential/dt < 1E-06 V/s
53.8737	0.02966	52.6	527	3.55641e-05
53.9737	0.029657	52.7	528	-6.61611e-05	dWE(1).Potential/dt < 1E-06 V/s
54.0737	0.029657	52.8	529	3.56013e-05
54.1737	0.029657	52.9	530	-1.01949e-05	dWE(1).Potential/dt < 1E-06 V/s
54.2737	0.029657	53	531	-1.86264e-08	dWE(1).Potential/dt < 1E-06 V/s
54.3737	0.0296539	53.1	532	-5.59476e-05	dWE(1).Potential/dt < 1E-06 V/s
54.4737	0.0296539	53.2	533	3.56448e-05
54.5737	0.0296509	53.3	534	-6.61301e-05	dWE(1).Potential/dt < 1E-06 V/s
54.6737	0.0296509	53.4	535	3.56324e-05
54.7737	0.0296509	53.5	536	-1.01638e-05	dWE(1).Potential/dt < 1E-06 V/s
54.8737	0.0296448	53.6	537	-0.000111846	dWE(1).Potential/dt < 1E-06 V/s
54.9737	0.0296478	53.7	538	0.00012707
55.0737	0.0296478	53.8	539	-5.59166e-05	dWE(1).Potential/dt < 1E-06 V/s
55.1737	0.0296478	53.9	540	1.017e-05
55.2737	0.0296417	54	541	-0.000111908	dWE(1).Potential/dt < 1E-06 V/s
55.3737	0.0296417	54.1	542	7.11779e-05
55.4737	0.0296448	54.2	543	3.56138e-05
55.5737	0.0296356	54.3	544	-0.000203519	dWE(1).Potential/dt < 1E-06 V/s
55.6737	0.0296356	54.4	545	0.000117055
55.7737	0.0296356	54.5	546	-3.05101e-05	dWE(1).Potential/dt < 1E-06 V/s
55.8737	0.0296295	54.6	547	-0.000111846	dWE(1).Potential/dt < 1E-06 V/s
55.9737	0.0296326	54.7	548	0.00012707
56.0737	0.0296295	54.8	549	-0.000111846	dWE(1).Potential/dt < 1E-06 V/s
56.1737	0.0296265	54.9	550	-1.02445e-05	dWE(1).Potential/dt < 1E-06 V/s
56.2737	0.0296295	55	551	8.141e-05
56.3737	0.0296265	55.1	552	-0.000101787	dWE(1).Potential/dt < 1E-06 V/s
56.4737	0.0296234	55.2	553	-1.01514e-05	dWE(1).Potential/dt < 1E-06 V/s
56.5737	0.0296234	55.3	554	2.54686e-05
56.6737	0.0296234	55.4	555	-1.01514e-05	dWE(1).Potential/dt < 1E-06 V/s
56.7737	0.0296204	55.5	556	-5.59601e-05	dWE(1).Potential/dt < 1E-06 V/s
56.8737	0.0296204	55.6	557	3.56324e-05
56.9737	0.0296204	55.7	558	-1.01638e-05	dWE(1).Potential/dt < 1E-06 V/s
57.0737	0.0296204	55.8	559	1.24176e-08	dWE(1).Potential/dt < 1E-06 V/s
57.1737	0.0296173	55.9	560	-5.59166e-05	dWE(1).Potential/dt < 1E-06 V/s
57.2737	0.0296143	56	561	-2.03525e-05	dWE(1).Potential/dt < 1E-06 V/s
57.3737	0.0296143	56.1	562	2.53941e-05
57.4737	0.0296112	56.2	563	-6.61611e-05	dWE(1).Potential/dt < 1E-06 V/s
57.5737	0.0296112	56.3	564	3.56013e-05
57.6737	0.0296112	56.4	565	-1.01949e-05	dWE(1).Potential/dt < 1E-06 V/s
57.7737	0.0296112	56.5	566	-1.86264e-08	dWE(1).Potential/dt < 1E-06 V/s
57.8737	0.0296051	56.6	567	-0.000111926	dWE(1).Potential/dt < 1E-06 V/s
57.9737	0.0296051	56.7	568	7.12586e-05
58.0737	0.0296051	56.8	569	-2.03339e-05	dWE(1).Potential/dt < 1E-06 V/s
58.1737	0.0296021	56.9	570	-5.59166e-05	dWE(1).Potential/dt < 1E-06 V/s
58.2737	0.029599	57	571	-2.03525e-05	dWE(1).Potential/dt < 1E-06 V/s
58.3737	0.029599	57.1	572	2.53941e-05
58.4737	0.0295959	57.2	573	-6.61611e-05	dWE(1).Potential/dt < 1E-06 V/s
58.5737	0.0295959	57.3	574	3.56013e-05
58.6737	0.0295959	57.4	575	-1.01949e-05	dWE(1).Potential/dt < 1E-06 V/s
58.7737	0.0295929	57.5	576	-5.59476e-05	dWE(1).Potential/dt < 1E-06 V/s
58.8737	0.0295929	57.6	577	3.56448e-05
58.9737	0.029599	57.7	578	0.000101756
59.0737	0.0295959	57.8	579	-0.000127237	dWE(1).Potential/dt < 1E-06 V/s
59.1737	0.0295898	57.9	580	-5.59601e-05	dWE(1).Potential/dt < 1E-06 V/s
59.2737	0.0295898	58	581	6.10823e-05
59.3737	0.0295868	58.1	582	-7.62629e-05	dWE(1).Potential/dt < 1E-06 V/s
59.4737	0.0295837	58.2	583	-2.03525e-05	dWE(1).Potential/dt < 1E-06 V/s
59.5737	0.0295807	58.3	584	-3.05846e-05	dWE(1).Potential/dt < 1E-06 V/s
59.6737	0.0295837	58.4	585	8.141e-05
59.7737	0.0295776	58.5	586	-0.000157716	dWE(1).Potential/dt < 1E-06 V/s
59.8737	0.0295807	58.6	587	0.00013737
59.9737	0.0295807	58.7	588	-5.59911e-05	dWE(1).Potential/dt < 1E-06 V/s
60.0737	0.0295776	58.8	589	-4.57776e-05	dWE(1).Potential/dt < 1E-06 V/s
60.1737	0.0295776	58.9	590	3.56448e-05
60.2737	0.0295746	59	591	-6.61301e-05	dWE(1).Potential/dt < 1E-06 V/s
60.3737	0.0295715	59.1	592	-2.02966e-05	dWE(1).Potential/dt < 1E-06 V/s
60.4737	0.0295746	59.2	593	8.13293e-05
60.5737	0.0295685	59.3	594	-0.000157592	dWE(1).Potential/dt < 1E-06 V/s
60.6737	0.0295715	59.4	595	0.00013724
60.7737	0.0295685	59.5	596	-0.000111846	dWE(1).Potential/dt < 1E-06 V/s
60.8737	0.0295715	59.6	597	0.000101663
60.9737	0.0295685	59.7	598	-0.000101676	dWE(1).Potential/dt < 1E-06 V/s
61.0737	0.0295654	59.8	599	-1.02445e-05	dWE(1).Potential/dt < 1E-06 V/s
61.1737	0.0295685	59.9	600	8.141e-05