File: data/20200304/OCP_p31_1.txt
Time (s)	WE(1).Potential (V)	Corrected time (s)	Index	dWE(1).Potential/dt (V/s)	OCP value (V)
1.53975	0.0181458	0	1	0	0.0175775
1.83975	0.0181427	0.3	4	-0.00019328
2.13975	0.0181396	0.6	7	8.14348e-05
2.43975	0.0181244	0.9	10	8.64888e-05
2.73975	0.0181244	1.2	13	-4.5759e-05
3.03975	0.0181152	1.5	16	-0.00021367
3.33975	0.018103	1.8	19	-0.00026955
3.63975	0.0181	2.1	22	0.000356032
3.93975	0.0181	2.4	25	0.000183073
4.23975	0.0180878	2.7	28	5.08999e-05
4.53975	0.0180817	3	31	-6.61177e-05
4.83975	0.0180786	3.3	34	0.000218774
5.13975	0.0180695	3.6	37	-0.000122078
5.43975	0.0180634	3.9	40	-0.000157667
5.73975	0.0180603	4.2	43	0.000218712
6.03975	0.0180573	4.5	46	8.14162e-05
6.33975	0.0180511	4.8	49	-0.00015771
6.63975	0.0180389	5.1	52	-0.000361179
6.93975	0.0180389	5.4	55	-6.20882e-08
7.23975	0.018042	5.7	58	-3.55765e-05
7.53975	0.0180298	6	61	-0.000178025
7.83975	0.0180389	6.3	64	0.000350978
8.13975	0.0180176	6.6	67	-0.000300022
8.43975	0.0180298	6.9	70	0.000269574
8.73975	0.0180267	7.2	73	0.000264452
9.03975	0.0180054	7.5	76	-0.000757829
9.33975	0.0180054	7.8	79	0.000137314
9.63975	0.0179962	8.1	82	1.52985e-05
9.93975	0.0179871	8.4	85	-0.000122096
10.2397	0.0179871	8.7	88	9.15552e-05
10.5397	0.017984	9	91	-0.000101738
10.8397	0.0179749	9.3	94	1.52302e-05
11.1397	0.0179749	9.6	97	-4.58211e-05
11.4397	0.01796875	9.9	100	0.000116999
11.7397	0.01796875	10.2	103	-4.34617e-08
12.0397	0.0179718	10.5	106	-3.55579e-05
12.3397	0.01796875	10.8	109	-5.59911e-05
12.6397	0.0179596	11.1	112	0.000152594
12.9397	0.0179565	11.4	115	0.000172978
13.2397	0.0179504	11.7	118	-0.000157667
13.5397	0.0179474	12	121	0.000356032
13.8397	0.0179443	12.3	124	-0.000101738
14.1397	0.0179352	12.6	127	0.000152563
14.4397	0.0179352	12.9	130	-0.000228888
14.7397	0.0179291	13.2	133	0.000116968
15.0397	0.0179291	13.5	136	0.000228857
15.3397	0.017926	13.8	139	-0.0001017
15.6397	0.0179199	14.1	142	2.53941e-05
15.9397	0.017926	14.4	145	-0.00011698
16.2397	0.0179169	14.7	148	0.000472975
16.5397	0.0179077	15	151	-0.000167849
16.8397	0.0179047	15.3	154	-0.000147466
17.1397	0.0179077	15.6	157	1.01266e-05
17.4397	0.0179016	15.9	160	-0.000294987
17.7397	0.0178955	16.2	163	0.000345893
18.0397	0.0178864	16.5	166	-0.000167874
18.3397	0.0178864	16.8	169	-9.16049e-05
18.6397	0.0178864	17.1	172	0.000137327
18.9397	0.0178833	17.4	175	3.56013e-05
19.2397	0.0178741	17.7	178	-7.62939e-05
19.5397	0.0178772	18	181	-0.000127163
19.8397	0.0178711	18.3	184	-0.000432351
20.1397	0.0178741	18.6	187	-0.000172891
20.4397	0.0178619	18.9	190	-8.64329e-05
20.7397	0.0178619	19.2	193	-4.57403e-05
21.0397	0.0178741	19.5	196	0.000818924
21.3397	0.0178589	19.8	199	-9.6665e-05
21.6397	0.0178528	20.1	202	-0.000111914
21.9397	0.0178528	20.4	205	0.000183135
22.2397	0.0178375	20.7	208	-0.000325516
22.5397	0.0178375	21	211	-4.57466e-05
22.8397	0.0178406	21.3	214	1.01576e-05
23.1397	0.0178406	21.6	217	0.000183123
23.4397	0.0178345	21.9	220	-0.00011187
23.7397	0.0178314	22.2	223	0.000310255
24.0397	0.0178192	22.5	226	-0.000178013
24.3397	0.0178192	22.8	229	1.24176e-08
24.6397	0.0178223	23.1	232	0.000101713
24.9397	0.0178223	23.4	235	0.000228907
25.2397	0.0178101	23.7	238	5.09123e-06
25.5397	0.017807	24	241	-0.000147484
25.8397	0.017807	24.3	244	-0.000228907
26.1397	0.0177979	24.6	247	-7.62691e-05
26.4397	0.017804	24.9	250	6.61549e-05
26.7397	0.0177948	25.2	253	-0.000350984
27.0397	0.0177887	25.5	256	-0.000340802
27.3397	0.0177856	25.8	259	0.000127119
27.6397	0.0177917	26.1	262	2.03215e-05
27.9397	0.0177826	26.4	265	-0.000122065
28.2397	0.0177795	26.7	268	-5.59601e-05
28.5397	0.0177673	27	271	-4.06926e-05
28.8397	0.0177765	27.3	274	0.000122084
29.1397	0.0177673	27.6	277	-7.62691e-05
29.4397	0.0177704	27.9	280	1.01762e-05
29.7397	0.0177612	28.2	283	-0.000396712
30.0397	0.0177582	28.5	286	-0.000239064
30.3397	0.0177582	28.8	289	-4.5759e-05
30.6397	0.017746	29.1	292	-0.000178007
30.9397	0.0177673	29.4	295	0.000437473
31.2397	0.0177582	29.7	298	-0.000305132
31.5397	0.0177521	30	301	-0.000111895
31.8397	0.0177521	30.3	304	9.15862e-05
32.1397	0.017749	30.6	307	-1.01887e-05
32.4397	0.0177551	30.9	310	0.000249234
32.7397	0.017746	31.2	313	-7.62877e-05
33.0397	0.017749	31.5	316	0.0001017
33.3397	0.0177338	31.8	319	-5.07881e-06
33.6397	0.0177216	32.1	322	-0.000178032
33.9397	0.0177338	32.4	325	8.64702e-05
34.2397	0.0177338	32.7	328	-0.000137302
34.5397	0.0177246	33	331	-0.000122078
34.8397	0.0177216	33.3	334	3.55703e-05
35.1397	0.0177246	33.6	337	0.000101669
35.4397	0.0177246	33.9	340	-0.000137333
35.7397	0.0177124	34.2	343	-0.000269506
36.0397	0.0177216	34.5	346	0.000305138
36.3397	0.0177155	34.8	349	0.00020856
36.6397	0.0177063	35.1	352	-3.05225e-05
36.9397	0.0177032	35.4	355	0.000356007
37.2397	0.0177124	35.7	358	0.000122103
37.5397	0.0177124	36	361	0.000320487
37.8397	0.0176971	36.3	364	-5.07881e-06
38.1397	0.017691	36.6	367	-6.61239e-05
38.4397	0.0177063	36.9	370	0.000279788
38.7397	0.0176941	37.2	373	-0.000132254
39.0397	0.0176971	37.5	376	1.01638e-05
39.3397	0.017691	37.8	379	-2.03525e-05
39.6397	0.0176849	38.1	382	-0.000249203
39.9397	0.017688	38.4	385	-8.14348e-05
40.2397	0.017691	38.7	388	5.59663e-05
40.5397	0.0176819	39	391	0.000106835
40.8397	0.017691	39.3	394	0.000442527
41.1397	0.0176819	39.6	397	0.000289921
41.4397	0.0176819	39.9	400	0.000320462
41.7397	0.0176758	40.2	403	-2.03525e-05
42.0397	0.017691	40.5	406	0.000417077
42.3397	0.0176788	40.8	409	-0.000178025
42.6397	0.0176727	41.1	412	-0.000111926
42.9397	0.0176788	41.4	415	0.000157642
43.2397	0.0176819	41.7	418	5.59849e-05
43.5397	0.0176758	42	421	-2.03277e-05
43.8397	0.0176758	42.3	424	0.000137333
44.1397	0.0176636	42.6	427	-0.000178025
44.4397	0.0176697	42.9	430	0.000294975
44.7397	0.0176666	43.2	433	0.000401835
45.0397	0.0176697	43.5	436	0.000376391
45.3397	0.0176605	43.8	439	6.10202e-05
45.6397	0.0176514	44.1	442	-0.000167793
45.9397	0.0176575	44.4	445	-2.54437e-05
46.2397	0.0176544	44.7	448	3.56013e-05
46.5397	0.0176483	45	451	7.12275e-05
46.8397	0.0176514	45.3	454	0.00023907
47.1397	0.0176453	45.6	457	-0.00043237
47.4397	0.0176422	45.9	460	-5.59601e-05
47.7397	0.0176392	46.2	463	-0.000147534
48.0397	0.0176392	46.5	466	9.15676e-05
48.3397	0.0176422	46.8	469	1.01576e-05
48.6397	0.0176392	47.1	472	-0.000239077
48.9397	0.0176361	47.4	475	-1.01576e-05
49.2397	0.0176361	47.7	478	-0.000366208
49.5397	0.0176361	48	481	-0.000137327
49.8397	0.0176361	48.3	484	4.58086e-05
50.1397	0.017627	48.6	487	1.52116e-05
50.4397	0.0176239	48.9	490	-1.017e-05
50.7397	0.01763	49.2	493	0.00020345
51.0397	0.0176239	49.5	496	-0.000249203
51.3397	0.017627	49.8	499	0.000147497
51.6397	0.0176239	50.1	502	0.00031023
51.9397	0.0176208	50.4	505	-0.000239039
52.2397	0.0176178	50.7	508	-0.000147509
52.5397	0.0176178	51	511	0.000320431
52.8397	0.0176147	51.3	514	-0.000193311
53.1397	0.0176056	51.6	517	-0.000122047
53.4397	0.0176117	51.9	520	-0.000208604
53.7397	0.0176025	52.2	523	1.52364e-05
54.0397	0.0176117	52.5	526	0.000305182
54.3397	0.0176086	52.8	529	0.000218737
54.6397	0.0176025	53.1	532	2.54561e-05
54.9397	0.0176025	53.4	535	0.000228888
55.2397	0.0175934	53.7	538	1.52551e-05
55.5397	0.0175934	54	541	-9.15676e-05
55.8397	0.0176025	54.3	544	7.63188e-05
56.1397	0.0175934	54.6	547	-0.000396737
56.4397	0.0175903	54.9	550	-5.59538e-05
56.7397	0.0175873	55.2	553	-1.017e-05
57.0397	0.0175873	55.5	556	4.57528e-05
57.3397	0.0175842	55.8	559	-0.000101669
57.6397	0.0175842	56.1	562	0.000137333
57.9397	0.0175903	56.4	565	-0.00011698
58.2397	0.0175812	56.7	568	1.52364e-05
58.5397	0.0175751	57	571	-0.000249234
58.8397	0.017569	57.3	574	-0.000294981
59.1397	0.017572	57.6	577	-0.000264527
59.4397	0.0175781	57.9	580	0.00015766
59.7397	0.017569	58.2	583	0.000106816
60.0397	0.017569	58.5	586	-0.000274635
60.3397	0.0175659	58.8	589	-5.59849e-05
60.6397	0.0175598	59.1	592	0.000117011
60.9397	0.0175629	59.4	595	1.017e-05
61.2397	0.0175629	59.7	598	0.000137314
61.4397	0.0175629	59.9	600	0.000183135