File: data/20200304/OCP_p32_1.txt
Time (s)	WE(1).Potential (V)	Corrected time (s)	Index	dWE(1).Potential/dt (V/s)	Cutoffs	OCP value (V)
1.58475	0.0533752	0	1	0	dWE(1).Potential/dt < 1E-06 V/s	0.0534147
1.68475	0.0534058	0.1	2	0.000305176
1.78475	0.0533752	0.2	3	-0.000610351	dWE(1).Potential/dt < 1E-06 V/s
1.88475	0.0533752	0.3	4	0.000457764
1.98475	0.0534058	0.4	5	0.000457764
2.08475	0.0534058	0.5	6	-0.000356038	dWE(1).Potential/dt < 1E-06 V/s
2.18475	0.0533752	0.6	7	-0.000457764	dWE(1).Potential/dt < 1E-06 V/s
2.28475	0.0533752	0.7	8	0.000356038
2.38475	0.0534058	0.8	9	0.000457764
2.48475	0.0534058	0.9	10	-0.000356038	dWE(1).Potential/dt < 1E-06 V/s
2.58475	0.0534058	1	11	0.000101725
2.68475	0.0533752	1.1	12	-0.000559489	dWE(1).Potential/dt < 1E-06 V/s
2.78475	0.0534058	1.2	13	0.000915527
2.88475	0.0533752	1.3	14	-0.00101725	dWE(1).Potential/dt < 1E-06 V/s
2.98475	0.0533752	1.4	15	0.000457764
3.08475	0.0534058	1.5	16	0.000457764
3.18475	0.0533752	1.6	17	-0.000915527	dWE(1).Potential/dt < 1E-06 V/s
3.28475	0.0534058	1.7	18	0.00101725
3.38475	0.0534058	1.8	19	-0.000457764	dWE(1).Potential/dt < 1E-06 V/s
3.48475	0.0534363	1.9	20	0.000661214
3.58475	0.0534058	2	21	-0.000915527	dWE(1).Potential/dt < 1E-06 V/s
3.68475	0.0534058	2.1	22	0.000457764
3.78475	0.0534058	2.2	23	-0.000101725	dWE(1).Potential/dt < 1E-06 V/s
3.88475	0.0534058	2.3	24	0	dWE(1).Potential/dt < 1E-06 V/s
3.98475	0.0534058	2.4	25	0	dWE(1).Potential/dt < 1E-06 V/s
4.08475	0.0534058	2.5	26	0	dWE(1).Potential/dt < 1E-06 V/s
4.18475	0.0534058	2.6	27	0	dWE(1).Potential/dt < 1E-06 V/s , dWE(1).Potential/dt > -1E-06 V/s
4.28475	0.0534058	2.7	28	0	dWE(1).Potential/dt < 1E-06 V/s , dWE(1).Potential/dt > -1E-06 V/s
4.38475	0.0534363	2.8	29	0.000559489
4.48475	0.0534363	2.9	30	-0.000356038	dWE(1).Potential/dt < 1E-06 V/s
4.58475	0.0534058	3	31	-0.000457764	dWE(1).Potential/dt < 1E-06 V/s
4.68475	0.0534363	3.1	32	0.000915527
4.78475	0.0534363	3.2	33	-0.000457764	dWE(1).Potential/dt < 1E-06 V/s
4.88475	0.0534363	3.3	34	0.000101725
4.98475	0.0534058	3.4	35	-0.000559489	dWE(1).Potential/dt < 1E-06 V/s
5.08475	0.0534363	3.5	36	0.000915527
5.18475	0.0534058	3.6	37	-0.00101725	dWE(1).Potential/dt < 1E-06 V/s
5.28475	0.0534363	3.7	38	0.00101725
5.38475	0.0534058	3.8	39	-0.00101725	dWE(1).Potential/dt < 1E-06 V/s
5.48475	0.0534058	3.9	40	0.000457764
5.58475	0.0534058	4	41	-0.000101725	dWE(1).Potential/dt < 1E-06 V/s
5.68475	0.0534058	4.1	42	0	dWE(1).Potential/dt < 1E-06 V/s
5.78475	0.0534058	4.2	43	0	dWE(1).Potential/dt < 1E-06 V/s
5.88475	0.0534058	4.3	44	0	dWE(1).Potential/dt < 1E-06 V/s
5.98475	0.0534058	4.4	45	0	dWE(1).Potential/dt < 1E-06 V/s , dWE(1).Potential/dt > -1E-06 V/s
6.08475	0.0534363	4.5	46	0.000559489
6.18475	0.0534363	4.6	47	-0.000356038	dWE(1).Potential/dt < 1E-06 V/s
6.28475	0.0534363	4.7	48	0.000101725
6.38475	0.0534058	4.8	49	-0.000559489	dWE(1).Potential/dt < 1E-06 V/s
6.48475	0.0534363	4.9	50	0.000915527
6.58475	0.0534058	5	51	-0.00101725	dWE(1).Potential/dt < 1E-06 V/s
6.68475	0.0534363	5.1	52	0.00101725
6.78475	0.0534058	5.2	53	-0.00101725	dWE(1).Potential/dt < 1E-06 V/s
6.88475	0.0534058	5.3	54	0.000457764
6.98475	0.0534058	5.4	55	-0.000101725	dWE(1).Potential/dt < 1E-06 V/s
7.08475	0.0534058	5.5	56	0	dWE(1).Potential/dt < 1E-06 V/s
7.18475	0.0534363	5.6	57	0.000559489
7.28475	0.0534058	5.7	58	-0.000915527	dWE(1).Potential/dt < 1E-06 V/s
7.38475	0.0534363	5.8	59	0.00101725
7.48475	0.0534058	5.9	60	-0.00101725	dWE(1).Potential/dt < 1E-06 V/s
7.58475	0.0534363	6	61	0.00101725
7.68475	0.0534363	6.1	62	-0.000457764	dWE(1).Potential/dt < 1E-06 V/s
7.78475	0.0534058	6.2	63	-0.000457764	dWE(1).Potential/dt < 1E-06 V/s
7.88475	0.0534363	6.3	64	0.000915527
7.98475	0.0534363	6.4	65	-0.000457764	dWE(1).Potential/dt < 1E-06 V/s
8.08475	0.0534058	6.5	66	-0.000457764	dWE(1).Potential/dt < 1E-06 V/s
8.18475	0.0534058	6.6	67	0.000356038
8.28475	0.0534363	6.7	68	0.000457764
8.38475	0.0534058	6.8	69	-0.000915527	dWE(1).Potential/dt < 1E-06 V/s
8.48475	0.0534363	6.9	70	0.00101725
8.58475	0.0534058	7	71	-0.00101725	dWE(1).Potential/dt < 1E-06 V/s
8.68475	0.0534058	7.1	72	0.000457764
8.78475	0.0534058	7.2	73	-0.000101725	dWE(1).Potential/dt < 1E-06 V/s
8.88475	0.0534363	7.3	74	0.000559489
8.98475	0.0534363	7.4	75	-0.000356038	dWE(1).Potential/dt < 1E-06 V/s
9.08475	0.0534363	7.5	76	0.000101725
9.18475	0.0534058	7.6	77	-0.000559489	dWE(1).Potential/dt < 1E-06 V/s
9.28475	0.0534058	7.7	78	0.000356038
9.38475	0.0534058	7.8	79	-0.000101725	dWE(1).Potential/dt < 1E-06 V/s
9.48475	0.0534058	7.9	80	0	dWE(1).Potential/dt < 1E-06 V/s
9.58475	0.0533752	8	81	-0.000559489	dWE(1).Potential/dt < 1E-06 V/s
9.68475	0.0534058	8.1	82	0.000915527
9.78475	0.0534058	8.2	83	-0.000457764	dWE(1).Potential/dt < 1E-06 V/s
9.88475	0.0534058	8.3	84	0.000101725
9.98475	0.0534058	8.4	85	0	dWE(1).Potential/dt < 1E-06 V/s
10.0847	0.0534058	8.5	86	0	dWE(1).Potential/dt < 1E-06 V/s
10.1847	0.0534058	8.6	87	0	dWE(1).Potential/dt < 1E-06 V/s
10.2847	0.0534058	8.7	88	0	dWE(1).Potential/dt < 1E-06 V/s
10.3847	0.0534058	8.8	89	0	dWE(1).Potential/dt < 1E-06 V/s , dWE(1).Potential/dt > -1E-06 V/s
10.4847	0.0534058	8.9	90	0	dWE(1).Potential/dt < 1E-06 V/s , dWE(1).Potential/dt > -1E-06 V/s