File: data/20200304/Z_p27_1.txt
Index	Frequency (Hz)	Z' (Ω)	-Z'' (Ω)	Z (Ω)	-Phase (°)	Time (s)
1	1000000	2283.19	4278.78	4849.83	61.9153	70.0321
2	794330	3157.5	4719.96	5678.71	56.2188	71.4871
3	630960	4307.96	5151.14	6715.11	50.0939	72.8871
4	501190	5571.41	5586.45	7889.81	45.0773	74.4221
5	398110	6914.28	6018.13	9166.52	41.036	79.4122
6	316230	8170.33	5924.44	10092.2	35.9465	80.7323
7	251190	9113.36	5633.88	10714.2	31.7244	84.8273
8	199530	10101.2	5472.12	11488.2	28.4458	86.1824
9	158490	11035.5	5224.98	12209.9	25.3362	87.6124
10	125890	11902.7	4916.33	12878.1	22.4427	88.9424
11	100000	12655.7	4598.45	13465.3	19.9686	90.3774
12	79433	13400.9	4263.19	14062.7	17.6472	91.7275
13	63096	13989	3909.35	14525	15.6135	93.1375
14	50119	14514.2	3526.2	14936.4	13.6553	94.5825
15	39811	15047.6	3156.88	15375.1	11.8484	95.9375
16	31623	15387.3	2901.8	15658.5	10.6797	97.2726
17	25119	15715.1	2626.9	15933.1	9.48972	98.7026
18	19953	16018.8	2357.03	16191.3	8.37051	100.098
19	15849	16322.3	2185.6	16467.9	7.62671	101.428
20	12589	16576.4	2002.44	16696.9	6.88799	102.788
21	10000	16770.3	1864.26	16873.6	6.34323	105.033
22	7943.3	16984.1	1741.31	17073.1	5.85385	106.293
23	6309.6	17182.8	1635.11	17260.4	5.43589	107.648
24	5011.9	17381.1	1533.86	17448.7	5.0432	109.048
25	3981.1	17562	1484.94	17624.6	4.8331	110.443
26	3162.3	17747.6	1438.83	17805.8	4.63494	111.778
27	2511.9	17920.2	1399.46	17974.7	4.46542	113.198
28	1995.3	18099	1371.46	18150.8	4.33334	114.523
29	1584.9	18283.7	1362.11	18334.3	4.26059	115.733
30	1258.9	18497	1388.7	18549.1	4.29355	117.178
31	1000	18653.3	1353.45	18702.4	4.15	118.493
32	794.33	18831.9	1344.19	18879.8	4.08276	119.943
33	630.96	19027.7	1350.8	19075.6	4.06069	121.283
34	501.19	19223.6	1356.19	19271.4	4.03542	122.603
35	398.11	19427.3	1367.95	19475.4	4.02778	123.883
36	316.23	19623.8	1378.75	19672.2	4.01894	125.248
37	251.19	19829.3	1398.33	19878.5	4.03375	126.678
38	199.53	20049.9	1408.65	20099.4	4.01882	128.113
39	158.49	20250.3	1426.04	20300.4	4.02815	129.523
40	125.89	20456.6	1438.82	20507.1	4.02328	130.968
41	100	20665.4	1450.56	20716.3	4.01516	132.293
42	79.433	20885.4	1467.56	20936.9	4.01941	133.738
43	63.096	21159.9	1540.38	21215.9	4.16362	135.253
44	50.119	21545	1726.67	21614	4.58205	145.113
45	39.811	21572.3	1514.82	21625.4	4.01675	154.159
46	31.623	21785.5	1511.75	21837.9	3.96954	155.844
47	25.119	22011.2	1520.27	22063.6	3.95103	157.529
48	19.953	22262.2	1543.18	22315.6	3.96531	159.509
49	15.849	22498.9	1556.58	22552.7	3.95769	161.509
50	12.589	22693.3	1537.18	22745.3	3.87514	163.709
51	10	22939.5	1586.38	22994.3	3.95599	166.094
52	7.9433	23143.3	1614.4	23199.5	3.9903	168.519
53	6.3096	23389.4	1648.86	23447.5	4.03244	170.959
54	5.0119	23589.5	1675.1	23648.9	4.06178	173.374
55	3.9811	23788.1	1677.85	23847.2	4.03459	175.809
56	3.1623	23951.1	1659.51	24008.5	3.96354	178.389
57	2.5119	24578.2	2288.06	24684.5	5.3185	180.974
58	1.9953	24374.4	1933.27	24451	4.53496	183.614
59	1.5849	24450.4	1643.35	24505.6	3.84515	186.324
60	1.2589	24418.3	2445.58	24540.4	5.7193	189.209
61	1	25024.5	2413.52	25140.7	5.50892	195.924
62	0.79433	25241.9	2683.82	25384.1	6.06912	199.104
63	0.63096	25432.3	2997.25	25608.3	6.72142	202.605
64	0.50119	25673.3	3445.11	25903.4	7.64289	206.415
65	0.39811	25875.8	4010.26	26184.7	8.80968	210.64
66	0.31623	26190.9	4699.89	26609.3	10.1733	215.465
67	0.25119	26400.1	5519.01	26970.8	11.8078	220.9
68	0.19953	26737.5	6503.77	27517.1	13.6714	227.21
69	0.15849	27095.2	7850.24	28209.5	16.1578	234.44
70	0.12589	27754.3	9463.8	29323.5	18.8286	242.98
71	0.1	28077.7	11111.3	30196.3	21.5904	253.21