File: data/20200304/Z_p28_1.txt
Index	Frequency (Hz)	Z' (Ω)	-Z'' (Ω)	Z (Ω)	-Phase (°)	Time (s)
1	1000000	2292.52	4214.51	4797.68	61.4556	70.3531
2	794330	3156.36	4603.46	5581.62	55.5635	71.7931
3	630960	4284.05	5120.46	6676.24	50.0824	73.2381
4	501190	5477.43	5482.15	7749.59	45.0247	74.7482
5	398110	6837.84	5793.65	8962.28	40.2744	79.7333
6	316230	8020.93	5774.69	9883.44	35.7521	81.0933
7	251190	8947.39	5447.34	10475.2	31.3338	85.2984
8	199530	9945.81	5239.65	11241.6	27.7811	86.6634
9	158490	10844.8	4974.39	11931.2	24.6405	87.9584
10	125890	11664.6	4658.86	12560.5	21.7719	89.2584
11	100000	12371.8	4330.58	13107.9	19.2919	90.9835
12	79433	13018.8	3977.91	13613	16.9905	92.5035
13	63096	13599.9	3639.37	14078.5	14.9814	93.8485
14	50119	14069	3291.19	14448.9	13.1665	95.1836
15	39811	14502.4	2990.96	14807.6	11.6532	96.5386
16	31623	14855.1	2649.43	15089.5	10.1124	97.9536
17	25119	15147.8	2391.52	15335.4	8.97177	99.2736
18	19953	15446.1	2146.1	15594.5	7.91013	100.559
19	15849	15677.9	1973.87	15801.6	7.17586	101.874
20	12589	15898.6	1805.33	16000.8	6.47835	103.219
21	10000	16061.9	1685.43	16150.1	5.99029	105.769
22	7943.3	16257.8	1568.8	16333.3	5.5117	107.079
23	6309.6	16438.2	1475.51	16504.3	5.12918	108.404
24	5011.9	16622.2	1406.43	16681.6	4.83637	109.719
25	3981.1	16780.6	1345.05	16834.4	4.58275	111.089
26	3162.3	16941.1	1303.26	16991.1	4.39903	112.494
27	2511.9	17102.8	1274.5	17150.2	4.2618	113.864
28	1995.3	17271.3	1256.32	17316.9	4.1604	115.199
29	1584.9	17431.8	1245.93	17476.3	4.08825	116.504
30	1258.9	17608.8	1233.43	17651.9	4.00682	117.804
31	1000	17774.2	1242.88	17817.6	3.99998	119.139
32	794.33	17950.6	1248.69	17994	3.97925	120.574
33	630.96	18120.4	1258.95	18164	3.97436	121.914
34	501.19	18317.9	1272.74	18362.1	3.97456	123.779
35	398.11	18501.2	1287.5	18545.9	3.98079	125.009
36	316.23	18692.6	1301.24	18737.8	3.9821	126.329
37	251.19	18882.7	1316.33	18928.6	3.98767	127.749
38	199.53	19089.2	1332.47	19135.6	3.99289	129.059
39	158.49	19281.3	1345.31	19328.2	3.99121	130.459
40	125.89	19484.6	1357.33	19531.8	3.98487	131.884
41	100	19676.3	1366.54	19723.7	3.97288	133.249
42	79.433	19885.2	1375.82	19932.8	3.95787	134.629
43	63.096	20112.1	1395.19	20160.5	3.96827	136.144
44	50.119	20252.7	1394.34	20300.6	3.93844	154.345
45	39.811	20561.3	1401.19	20609	3.8985	163.405
46	31.623	20781	1405.27	20828.5	3.86861	165.05
47	25.119	20992	1383.94	21037.6	3.77186	166.635
48	19.953	21190.6	1378.62	21235.4	3.72231	168.545
49	15.849	21394.2	1361.17	21437.4	3.64045	170.51
50	12.589	21614.5	1361.72	21657.3	3.60489	172.485
51	10	21812	1345.63	21853.4	3.53024	174.85
52	7.9433	22003.8	1340.14	22044.6	3.48528	177.21
53	6.3096	22212.7	1345.79	22253.4	3.4671	179.57
54	5.0119	22371.5	1351.24	22412.3	3.45646	182.075
55	3.9811	22515	1320.03	22553.6	3.35536	184.52
56	3.1623	22722.8	1318.37	22761	3.32057	187.095
57	2.5119	22728.1	1478.27	22776.2	3.72136	189.665
58	1.9953	22920	1257.93	22954.5	3.14144	192.315
59	1.5849	23224.1	1483.32	23271.4	3.6545	195.075
60	1.2589	23445.6	1649.2	23503.6	4.02364	198.035
61	1	23419.5	1831.24	23491	4.47103	203.131
62	0.79433	23553	2039.15	23641.1	4.94817	206.406
63	0.63096	23701	2309.15	23813.2	5.56468	210.381
64	0.50119	23848.4	2688.31	23999.4	6.43152	214.361
65	0.39811	23987.5	3136.82	24191.8	7.45022	218.576
66	0.31623	24182.1	3789.77	24477.2	8.90684	223.301
67	0.25119	24455.9	4419.86	24852.1	10.2444	228.731
68	0.19953	24734.5	5276.37	25291	12.0419	234.921
69	0.15849	24996.1	6329.14	25784.9	14.2089	242.251
70	0.12589	25350.8	7795.91	26522.4	17.0938	250.836
71	0.1	26005.8	9265.62	27607.1	19.6105	261.347