File: data/20200304/Z_p29_1.txt
Index	Frequency (Hz)	Z' (Ω)	-Z'' (Ω)	Z (Ω)	-Phase (°)	Time (s)
1	1000000	2238.38	3967.73	4555.57	60.5706	70.0111
2	794330	2991.03	4357.07	5284.91	55.5313	71.4211
3	630960	4010.18	4851.09	6294.02	50.421	72.8811
4	501190	5109.24	5231.85	7312.76	45.6793	74.4062
5	398110	6340.9	5528.38	8412.49	41.0838	79.8213
6	316230	7539.53	5579.4	9379.46	36.5022	81.2663
7	251190	8351.91	5461.25	9978.96	33.1804	85.6114
8	199530	9357.75	5392.06	10800.1	29.9511	86.9964
9	158490	10295.4	5250.37	11556.9	27.0203	88.4014
10	125890	11173.8	5042.39	12258.8	24.2882	89.7414
11	100000	12012.1	4815.87	12941.5	21.8468	91.2115
12	79433	12790.2	4528.68	13568.2	19.4978	92.7115
13	63096	13489.4	4233.96	14138.3	17.4256	94.1465
14	50119	14100.7	3857.52	14618.8	15.3	95.5616
15	39811	14663.1	3539.55	15084.3	13.5711	96.9016
16	31623	15153.7	3160.81	15479.9	11.782	98.2366
17	25119	15518	2840.57	15775.8	10.3732	99.5516
18	19953	15871.8	2552.65	16075.8	9.1366	101.022
19	15849	16166.2	2295.41	16328.4	8.0813	102.372
20	12589	16419.8	2064.13	16549	7.16506	103.707
21	10000	16619.7	1895.14	16727.4	6.5053	105.957
22	7943.3	16836.2	1729.36	16924.8	5.86467	107.232
23	6309.6	17012.4	1596.76	17087.2	5.362	108.527
24	5011.9	17192.8	1483.79	17256.7	4.93257	109.882
25	3981.1	17367.2	1392.37	17422.9	4.58376	111.227
26	3162.3	17527.8	1326.77	17578	4.32874	112.527
27	2511.9	17679.3	1270.83	17724.9	4.1115	113.892
28	1995.3	17835.4	1229.38	17877.7	3.9431	115.297
29	1584.9	17991.3	1200.21	18031.3	3.81659	116.612
30	1258.9	18155.2	1197.99	18194.7	3.77524	117.922
31	1000	18301.5	1170.18	18338.9	3.65844	119.247
32	794.33	18462.4	1162.08	18498.9	3.60164	120.742
33	630.96	18622.4	1156.27	18658.3	3.55295	122.157
34	501.19	18778.6	1154.92	18814.1	3.51936	123.512
35	398.11	18952.2	1161.95	18987.8	3.50839	124.847
36	316.23	19113.2	1164.29	19148.6	3.4859	126.172
37	251.19	19287.7	1175.81	19323.5	3.48855	127.522
38	199.53	19452.8	1182.2	19488.7	3.47773	128.782
39	158.49	19623	1194.57	19659.3	3.48362	130.142
40	125.89	19798.2	1205.48	19834.8	3.48434	131.572
41	100	19977.6	1211.73	20014.3	3.471	132.892
42	79.433	20148.9	1226.08	20186.1	3.48221	134.337
43	63.096	20370.8	1256.48	20409.5	3.52956	135.967
44	50.119	20615	1237.39	20652.1	3.43499	154.138
45	39.811	20724.6	1264.88	20763.1	3.49259	163.173
46	31.623	20901.4	1272.52	20940.1	3.48399	164.813
47	25.119	21096	1289.81	21135.4	3.4987	166.398
48	19.953	21270.6	1292.24	21309.8	3.47659	168.343
49	15.849	21476.1	1286.91	21514.7	3.42923	170.488
50	12.589	21635.9	1309.6	21675.5	3.46382	172.513
51	10	21834.7	1322.99	21874.8	3.46737	174.848
52	7.9433	22023.5	1351.73	22065	3.51222	177.243
53	6.3096	22190.8	1364.56	22232.7	3.51882	179.568
54	5.0119	22381.5	1381.17	22424.1	3.53126	181.958
55	3.9811	22573.6	1445.34	22619.8	3.66352	184.458
56	3.1623	22714.7	1560.54	22768.2	3.93016	187.003
57	2.5119	22862.7	1756.89	22930.1	4.39428	189.643
58	1.9953	23239.5	1531.86	23289.9	3.77126	192.378
59	1.5849	23330.7	1686.78	23391.6	4.1352	195.223
60	1.2589	23396.3	2256.6	23504.9	5.5092	198.148
61	1	23558.6	2158.65	23657.3	5.23532	203.204
62	0.79433	23749.5	2409.62	23871.4	5.7934	206.449
63	0.63096	23905	2744.73	24062.1	6.54991	210.044
64	0.50119	24107.7	3172.89	24315.6	7.49776	213.919
65	0.39811	24299.3	3728.25	24583.6	8.7229	218.129
66	0.31623	24593.4	4376.2	24979.7	10.0897	222.924
67	0.25119	24810.1	5211.39	25351.6	11.8626	228.344
68	0.19953	25105.2	6176.58	25853.8	13.8219	234.544
69	0.15849	25524.3	7444.72	26587.9	16.2604	241.794
70	0.12589	26136	8813.54	27582.1	18.635	250.394
71	0.1	26420.2	10512.4	28434.8	21.6973	260.57