File: data/20200304/Z_p30_1.txt
Index	Frequency (Hz)	Z' (Ω)	-Z'' (Ω)	Z (Ω)	-Phase (°)	Time (s)
1	1000000	2470.76	4189.42	4863.73	59.4696	70.0811
2	794330	3350.67	4576.84	5672.25	53.7924	71.5411
3	630960	4471	4965.73	6681.94	48.001	72.9611
4	501190	5652.74	5243.12	7709.98	42.847	74.4912
5	398110	7000.1	5420.79	8853.6	37.7537	79.5763
6	316230	8126.38	5291.91	9697.54	33.0722	80.8913
7	251190	8902.03	4967.27	10194.1	29.1612	84.9314
8	199530	9786	4748.21	10877.1	25.8828	86.3064
9	158490	10570.3	4487.76	11483.5	23.0042	87.7264
10	125890	11270.5	4187.18	12023.2	20.3809	89.0464
11	100000	11902.5	3884.74	12520.4	18.0756	90.4715
12	79433	12476.9	3580.64	12980.6	16.0125	91.7765
13	63096	12959.8	3276.31	13367.5	14.1874	93.1115
14	50119	13402.6	2989.37	13731.9	12.5737	94.4215
15	39811	13770.6	2718.77	14036.4	11.1685	95.7266
16	31623	14112.2	2428.51	14319.7	9.76416	97.0366
17	25119	14397.8	2214.22	14567.1	8.74293	98.3616
18	19953	14662.1	2029.78	14801.9	7.88178	99.7416
19	15849	14899.2	1846.45	15013.1	7.06462	101.072
20	12589	15103.3	1706.33	15199.4	6.44577	102.422
21	10000	15269.1	1600.53	15352.8	5.98399	103.772
22	7943.3	15456.2	1499.3	15528.7	5.54053	105.082
23	6309.6	15633.9	1414.06	15697.7	5.16824	106.407
24	5011.9	15801.3	1349.64	15858.8	4.88197	107.747
25	3981.1	15968.3	1294.54	16020.6	4.63479	109.097
26	3162.3	16133.7	1255.56	16182.5	4.44989	110.442
27	2511.9	16282.8	1226.93	16329	4.30917	111.767
28	1995.3	16441.2	1206.86	16485.4	4.19823	113.082
29	1584.9	16606.8	1194.61	16649.7	4.11447	114.297
30	1258.9	16777.9	1194.69	16820.3	4.07295	115.652
31	1000	16928.9	1187.22	16970.5	4.01158	117.007
32	794.33	17096.1	1193.36	17137.7	3.99294	118.527
33	630.96	17268.5	1195.38	17309.8	3.95988	119.937
34	501.19	17443.4	1205.79	17485	3.95432	121.292
35	398.11	17618.3	1214.61	17660.1	3.94376	122.592
36	316.23	17794.5	1224.43	17836.6	3.93629	123.902
37	251.19	17978.5	1233.03	18020.7	3.9234	125.352
38	199.53	18162	1245.86	18204.7	3.92417	126.602
39	158.49	18342.5	1255.7	18385.4	3.91626	128.002
40	125.89	18539.5	1268.11	18582.8	3.91296	129.397
41	100	18720.2	1272.05	18763.4	3.88731	130.777
42	79.433	18908.8	1278.98	18952	3.86955	132.207
43	63.096	19094	1264.13	19135.8	3.78778	133.687
44	50.119	19322.9	1412.99	19374.5	4.18234	151.988
45	39.811	19522.8	1282.35	19564.9	3.75804	161.063
46	31.623	19710.2	1268.57	19751	3.68253	162.718
47	25.119	19933	1284.53	19974.4	3.68718	164.313
48	19.953	20121.1	1270.31	20161.1	3.61247	166.208
49	15.849	20311.3	1235.72	20348.8	3.48153	168.183
50	12.589	20477.5	1232.85	20514.6	3.44535	170.158
51	10	20686.2	1207.09	20721.4	3.33956	172.413
52	7.9433	20834.6	1171.28	20867.5	3.21768	174.768
53	6.3096	21037.5	1158.56	21069.3	3.15217	177.138
54	5.0119	21175.9	1150.53	21207.1	3.10994	179.548
55	3.9811	21304.6	1126.07	21334.3	3.02559	182.013
56	3.1623	21463	1094.63	21490.9	2.9196	184.528
57	2.5119	21552.6	1145.64	21583.1	3.04273	187.178
58	1.9953	21769.1	1084.09	21796	2.85096	189.823
59	1.5849	21672.4	1233.79	21707.5	3.25829	192.678
60	1.2589	21923.4	1240.88	21958.5	3.23951	195.563
61	1	22079.6	1379.17	22122.6	3.57426	200.674
62	0.79433	22190.4	1506.68	22241.5	3.8843	203.824
63	0.63096	22312.1	1660.11	22373.8	4.25519	207.299
64	0.50119	22416.4	1899.29	22496.7	4.84297	211.119
65	0.39811	22515.7	2188.58	22621.9	5.55184	215.349
66	0.31623	22675.8	2596.96	22824.1	6.53337	220.089
67	0.25119	22866.4	3016.25	23064.4	7.51438	225.559
68	0.19953	23013.2	3563.11	23287.4	8.80115	231.834
69	0.15849	23208.7	4287.54	23601.4	10.4667	239.194
70	0.12589	23458.5	5287.7	24047.1	12.7025	247.774
71	0.1	23788.2	6216.85	24587.1	14.6462	257.985