File: data/20200304/Z_p31_1.txt
Index	Frequency (Hz)	Z' (Ω)	-Z'' (Ω)	Z (Ω)	-Phase (°)	Time (s)
1	1000000	2209.73	4018.6	4586.07	61.1947	70.4071
2	794330	2988.3	4436.74	5349.26	56.0384	71.8771
3	630960	4015.1	4946.8	6371.18	50.9353	73.2871
4	501190	5169.81	5328.14	7424.02	45.8641	74.7922
5	398110	6471.22	5744.44	8653.05	41.5952	80.2023
6	316230	7653.1	5768.88	9583.84	37.0088	81.5423
7	251190	8585.4	5489	10190.1	32.5924	85.6774
8	199530	9603.54	5368.36	11002.2	29.2051	87.0274
9	158490	10553	5149.27	11742.3	26.0098	88.4974
10	125890	11416.9	4852.67	12405.4	23.0276	89.8575
11	100000	12180.7	4541.23	12999.7	20.4466	91.3775
12	79433	12869.2	4193.74	13535.3	18.0494	92.7275
13	63096	13509	3834.94	14042.8	15.8482	94.1125
14	50119	14022.8	3461.69	14443.7	13.8669	95.6426
15	39811	14480.7	3117.1	14812.4	12.148	97.0126
16	31623	14848.9	2801.76	15110.9	10.6853	98.3776
17	25119	15167.7	2533.8	15377.9	9.48382	99.7526
18	19953	15479.3	2298.9	15649.1	8.4475	101.128
19	15849	15714	2090.25	15852.4	7.57693	102.508
20	12589	15933.4	1915.07	16048	6.85364	103.838
21	10000	16116.5	1801.69	16216.9	6.37871	105.203
22	7943.3	16322.4	1685.79	16409.3	5.89665	106.533
23	6309.6	16512.2	1595.87	16589.2	5.52036	107.898
24	5011.9	16700.5	1527.99	16770.3	5.22765	109.233
25	3981.1	16876.4	1479.71	16941.1	5.01085	110.613
26	3162.3	17056.5	1447.63	17117.8	4.85121	112.008
27	2511.9	17232.4	1430.04	17291.7	4.74383	113.348
28	1995.3	17419	1425.73	17477.2	4.67918	114.688
29	1584.9	17600.8	1431.82	17658.9	4.65076	115.883
30	1258.9	17783.2	1446.27	17841.9	4.64952	117.263
31	1000	17980	1470.13	18040	4.67436	118.663
32	794.33	18186.9	1503.28	18248.9	4.72519	120.123
33	630.96	18387.3	1541.84	18451.8	4.79323	121.433
34	501.19	18607.6	1589.35	18675.3	4.88204	122.798
35	398.11	18827.6	1641.79	18899.1	4.98365	124.048
36	316.23	19052.4	1700.96	19128.2	5.10172	125.408
37	251.19	19286.4	1766.95	19367.1	5.23462	126.808
38	199.53	19532	1837.08	19618.2	5.37315	128.128
39	158.49	19800.3	1919.4	19893.1	5.53682	129.538
40	125.89	20064.6	2005.61	20164.6	5.70821	131.053
41	100	20346.5	2095.89	20454.1	5.8813	132.468
42	79.433	20645	2198.89	20761.8	6.07962	133.928
43	63.096	20946.1	2291.06	21071	6.24215	135.488
44	50.119	21410	2381.76	21542.1	6.34777	153.709
45	39.811	21618.8	2558.62	21769.7	6.74965	162.744
46	31.623	21992.5	2695.51	22157.1	6.98758	164.514
47	25.119	22368.5	2829.97	22546.8	7.2105	166.294
48	19.953	22749.8	3019.24	22949.3	7.55983	168.189
49	15.849	23170.9	3192.84	23389.9	7.84567	170.154
50	12.589	23601.4	3391.01	23843.8	8.17619	172.194
51	10	24074	3619.57	24344.6	8.55049	174.539
52	7.9433	24549.6	3812.27	24843.9	8.82687	176.874
53	6.3096	25045	4101.17	25378.5	9.29978	179.224
54	5.0119	25556	4416.1	25934.7	9.80394	181.624
55	3.9811	26105.7	4742.01	26532.9	10.2953	184.089
56	3.1623	26712.4	4995.28	27175.4	10.5921	186.599
57	2.5119	27659.2	5493.6	28199.5	11.2337	189.154
58	1.9953	27796.8	6127.17	28464.1	12.4308	191.884
59	1.5849	28685.6	6633.32	29442.5	13.0204	194.654
60	1.2589	29215.6	7757.3	30227.9	14.87	197.639
61	1	30072.6	8382.76	31219.1	15.5759	204.39
62	0.79433	30903.4	9433.04	32311	16.9745	207.58
63	0.63096	31852.9	10655.2	33587.8	18.4957	211.165
64	0.50119	32776.8	12127.9	34948.6	20.3052	215.03
65	0.39811	33923.3	13983.5	36692.3	22.4019	219.365
66	0.31623	35039.9	16117.6	38569	24.7013	224.14
67	0.25119	36590.8	18909.5	41188	27.3292	229.63
68	0.19953	38139.1	22081.7	44070.3	30.0698	235.86
69	0.15849	40077.6	25774.2	47650	32.7454	243.22
70	0.12589	42045.7	29834.8	51555.4	35.3588	251.77
71	0.1	44177.4	35649.9	56767.6	38.9025	262.096