File: data/20200304/Z_p32_1.txt
Index	Frequency (Hz)	Z' (Ω)	-Z'' (Ω)	Z (Ω)	-Phase (°)	Time (s)
1	1000000	2135.26	3980.81	4517.32	61.7914	20.3812
2	794330	2891.19	4453.62	5309.78	57.0093	21.8362
3	630960	3915.22	4975.6	6331.31	51.8014	23.2712
4	501190	5006.69	5384.36	7352.43	47.0815	24.8712
5	398110	6230.73	5876.37	8564.68	43.3235	31.1464
6	316230	7387.97	6008.67	9522.93	39.1216	32.5314
7	251190	8390.73	5836.05	10220.7	34.82	36.8215
8	199530	9455.96	5831.52	11109.5	31.6623	38.1865
9	158490	10475.4	5743.73	11946.8	28.7362	39.5015
10	125890	11451.7	5579.98	12738.8	25.9782	40.9665
11	100000	12373.4	5373.3	13489.7	23.4736	42.4466
12	79433	13235.4	5100.73	14184.2	21.076	43.8416
13	63096	14052.1	4840.23	14862.4	19.0061	45.2766
14	50119	14779.9	4504.82	15451.2	16.9509	46.6966
15	39811	15482.7	4175.91	16035.9	15.0943	48.0167
16	31623	16033.7	3816.38	16481.7	13.3885	49.4217
17	25119	16555.3	3473.22	16915.7	11.8486	50.7417
18	19953	16985.8	3158.99	17277	10.5354	52.0617
19	15849	17377.2	2879.89	17614.2	9.41	53.4268
20	12589	17728.1	2619.3	17920.5	8.40457	54.7718
21	10000	17984	2410.68	18144.9	7.63473	56.1368
22	7943.3	18275	2230.8	18410.6	6.95958	57.4618
23	6309.6	18524.4	2069.77	18639.6	6.37536	58.8869
24	5011.9	18766.4	1938.23	18866.2	5.89671	60.2719
25	3981.1	18979.1	1840.13	19068.1	5.53783	61.6219
26	3162.3	19199.5	1760.66	19280.1	5.23954	63.022
27	2511.9	19407.7	1703.09	19482.3	5.01507	64.412
28	1995.3	19599.7	1665.77	19670.4	4.85788	65.792
29	1584.9	19806.4	1639.81	19874.2	4.73283	67.117
30	1258.9	20035.8	1629.73	20102	4.65026	68.5271
31	1000	20232.3	1635.61	20298.3	4.62182	69.9121
32	794.33	20450.7	1654.48	20517.5	4.62519	71.3021
33	630.96	20660	1678.29	20728.1	4.64413	72.6671
34	501.19	20896.1	1711.68	20966.1	4.68286	74.2722
35	398.11	21122.9	1757.55	21195.9	4.75641	75.5972
36	316.23	21366	1816.25	21443.1	4.85883	76.8872
37	251.19	21614.3	1877.14	21695.7	4.96352	78.6872
38	199.53	21859.3	1952.71	21946.3	5.10474	79.9773
39	158.49	22130.4	2031.96	22223.5	5.24605	81.3473
40	125.89	22410.7	2127.85	22511.5	5.42386	82.8773
41	100	22695.4	2229.56	22804.6	5.61066	84.2123
42	79.433	23003.4	2343.27	23122.4	5.81646	85.6674
43	63.096	23313.7	2515.21	23448.9	6.15757	87.2024
44	50.119	23760.3	2672	23910	6.41633	105.448
45	39.811	24010.9	2773.56	24170.6	6.58917	118.133
46	31.623	24389.4	2959.55	24568.3	6.91878	119.783
47	25.119	24785.1	3173.22	24987.4	7.29584	121.458
48	19.953	25201.1	3395.87	25428.9	7.67441	123.338
49	15.849	25665.1	3630.32	25920.6	8.05107	125.293
50	12.589	26113.9	3923.07	26406.9	8.54363	127.283
51	10	26610.4	4256.47	26948.7	9.08778	129.668
52	7.9433	27146.7	4611.14	27535.6	9.64026	132.078
53	6.3096	27720.3	5032.15	28173.3	10.289	134.488
54	5.0119	28363.9	5487.25	28889.8	10.9491	136.973
55	3.9811	29027.5	6077.14	29656.8	11.8245	139.408
56	3.1623	29669.1	6734.05	30423.7	12.7879	142.023
57	2.5119	30843.7	7593.94	31764.8	13.8315	144.573
58	1.9953	31465.7	8258.61	32531.5	14.7064	147.309
59	1.5849	32521.6	9136.67	33780.7	15.6922	150.089
60	1.2589	33307.9	10826.4	35023.2	18.0062	154.629
61	1	34558.4	11617.2	36458.8	18.5806	157.799
62	0.79433	35843.6	13048.6	38144.9	20.0036	163.094
63	0.63096	37272.3	14712.6	40071	21.5408	166.599
64	0.50119	38904.7	16675.8	42327.9	23.2015	170.449
65	0.39811	40631.7	18986.5	44848.9	25.0459	174.714
66	0.31623	42753.8	21625.5	47911.9	26.831	179.529
67	0.25119	44812.5	24586.6	51114.2	28.7516	185.029
68	0.19953	47398.4	28000.2	55051.1	30.5721	191.359
69	0.15849	50140.5	32216.2	59598.3	32.7215	198.614
70	0.12589	53657.6	37352.7	65378.6	34.843	207.26
71	0.1	57394.9	42326.1	71313.9	36.407	217.525