File: data/Z_measu_on_silk_fibroin/OCP_GNP0.5%_IV.txt
Time (s)	WE(1).Potential (V)	Corrected time (s)	Index	dWE(1).Potential/dt (V/s)	Cutoffs	OCP value (V)
1.44874	-0.00457764	0	1	0	dWE(1).Potential/dt < 1E-06 V/s	-0.00471033
1.54874	-0.00455933	0.1	2	0.000183107
1.64874	-0.00455322	0.2	3	0	dWE(1).Potential/dt < 1E-06 V/s
1.74874	-0.00454102	0.3	4	0.000213614
1.84874	-0.00452576	0.4	5	0.000157682
1.94874	-0.00450745	0.5	6	0.00019837
2.04874	-0.00449219	0.6	7	0.000116976
2.14874	-0.00448914	0.7	8	-6.10435e-05	dWE(1).Potential/dt < 1E-06 V/s
2.24874	-0.00448914	0.8	9	1.52597e-05
2.34874	-0.00447388	0.9	10	0.000289913
2.44874	-0.00447693	1	11	-0.000233964	dWE(1).Potential/dt < 1E-06 V/s
2.54874	-0.00446472	1.1	12	0.000310251
2.64874	-0.00445862	1.2	13	-4.06833e-05	dWE(1).Potential/dt < 1E-06 V/s
2.74874	-0.00445557	1.3	14	2.54298e-05
2.84874	-0.00446167	1.4	15	-0.000127155	dWE(1).Potential/dt < 1E-06 V/s
2.94874	-0.00445251	1.5	16	0.000249225
3.04874	-0.00445557	1.6	17	-0.000183104	dWE(1).Potential/dt < 1E-06 V/s
3.14874	-0.00444946	1.7	18	0.000178018
3.24874	-0.00445557	1.8	19	-0.000193271	dWE(1).Potential/dt < 1E-06 V/s
3.34874	-0.00444946	1.9	20	0.000203444
3.44874	-0.00445251	2	21	-0.000147489	dWE(1).Potential/dt < 1E-06 V/s
3.54874	-0.00445251	2.1	22	5.59476e-05
3.64874	-0.00445557	2.2	23	-6.61223e-05	dWE(1).Potential/dt < 1E-06 V/s
3.74874	-0.00444946	2.3	24	0.0001475
3.84874	-0.00445251	2.4	25	-0.000137317	dWE(1).Potential/dt < 1E-06 V/s
3.94874	-0.00444946	2.5	26	0.000111889
4.04874	-0.00444641	2.6	27	1.0184e-05
4.14874	-0.00444641	2.7	28	-2.54406e-05	dWE(1).Potential/dt < 1E-06 V/s
4.24874	-0.00444641	2.8	29	1.01716e-05
4.34874	-0.00444336	2.9	30	5.59399e-05
4.44874	-0.00444336	3	31	-3.56029e-05	dWE(1).Potential/dt < 1E-06 V/s
4.54874	-0.00444946	3.1	32	-0.000101727	dWE(1).Potential/dt < 1E-06 V/s
4.64874	-0.00444336	3.2	33	0.000183107
4.74874	-0.00443726	3.3	34	2.03494e-05
4.84874	-0.00443115	3.4	35	6.10342e-05
4.94874	-0.00443115	3.5	36	-5.08657e-05	dWE(1).Potential/dt < 1E-06 V/s
5.04874	-0.0044281	3.6	37	7.62846e-05
5.14874	-0.0044281	3.7	38	-3.56029e-05	dWE(1).Potential/dt < 1E-06 V/s
5.24874	-0.0044281	3.8	39	1.01685e-05
5.34874	-0.00442505	3.9	40	5.59507e-05
5.44874	-0.00442505	4	41	-3.56045e-05	dWE(1).Potential/dt < 1E-06 V/s
5.54874	-0.00442505	4.1	42	1.01731e-05
5.64874	-0.00441895	4.2	43	0.000111895
5.74874	-0.00442505	4.3	44	-0.000183098	dWE(1).Potential/dt < 1E-06 V/s
5.84874	-0.0044281	4.4	45	3.55951e-05
5.94874	-0.0044281	4.5	46	1.52566e-05
6.04874	-0.004422	4.6	47	0.000101731
6.14874	-0.0044281	4.7	48	-0.000183114	dWE(1).Potential/dt < 1E-06 V/s
6.24874	-0.0044342	4.8	49	-2.03432e-05	dWE(1).Potential/dt < 1E-06 V/s
6.34874	-0.00444031	4.9	50	-6.10296e-05	dWE(1).Potential/dt < 1E-06 V/s
6.44874	-0.00444031	5	51	5.08595e-05
6.54874	-0.00445251	5.1	52	-0.000244135	dWE(1).Potential/dt < 1E-06 V/s
6.64874	-0.00446167	5.2	53	-2.54313e-05	dWE(1).Potential/dt < 1E-06 V/s
6.74874	-0.00447388	5.3	54	-0.000157685	dWE(1).Potential/dt < 1E-06 V/s
6.84874	-0.00448303	5.4	55	-5.59383e-05	dWE(1).Potential/dt < 1E-06 V/s
6.94874	-0.00448914	5.5	56	-4.57854e-05	dWE(1).Potential/dt < 1E-06 V/s
7.04874	-0.00449524	5.6	57	-7.12058e-05	dWE(1).Potential/dt < 1E-06 V/s
7.14874	-0.00449219	5.7	58	0.00010682
7.24874	-0.00448608	5.8	59	5.59383e-05
7.34874	-0.00448608	5.9	60	-6.10311e-05	dWE(1).Potential/dt < 1E-06 V/s
7.44874	-0.00448303	6	61	7.62986e-05
7.54874	-0.00447083	6.1	62	0.000188189
7.64874	-0.00446777	6.2	63	-7.62877e-05	dWE(1).Potential/dt < 1E-06 V/s
7.74874	-0.00446472	6.3	64	6.10296e-05
7.84874	-0.00446167	6.4	65	3.05287e-05
7.94874	-0.00446167	6.5	66	-2.54406e-05	dWE(1).Potential/dt < 1E-06 V/s
8.04874	-0.00446777	6.6	67	-0.000101724	dWE(1).Potential/dt < 1E-06 V/s
8.14874	-0.00447388	6.7	68	-4.06941e-05	dWE(1).Potential/dt < 1E-06 V/s
8.24874	-0.00447388	6.8	69	5.08611e-05
8.34874	-0.00448303	6.9	70	-0.000188186	dWE(1).Potential/dt < 1E-06 V/s
8.44874	-0.00448914	7	71	-5.09433e-06	dWE(1).Potential/dt < 1E-06 V/s
8.54874	-0.00450439	7.1	72	-0.000239055	dWE(1).Potential/dt < 1E-06 V/s
8.64874	-0.0045166	7.2	73	-6.61208e-05	dWE(1).Potential/dt < 1E-06 V/s
8.74874	-0.00453186	7.3	74	-0.000188192	dWE(1).Potential/dt < 1E-06 V/s
8.84874	-0.00455017	7.4	75	-0.000198369	dWE(1).Potential/dt < 1E-06 V/s
8.94874	-0.00457153	7.5	76	-0.000228882	dWE(1).Potential/dt < 1E-06 V/s
9.04874	-0.00459595	7.6	77	-0.000259398	dWE(1).Potential/dt < 1E-06 V/s
9.14874	-0.00461121	7.7	78	-6.6127e-05	dWE(1).Potential/dt < 1E-06 V/s
9.24874	-0.00463562	7.8	79	-0.000350946	dWE(1).Potential/dt < 1E-06 V/s
9.34874	-0.00465698	7.9	80	-0.000157682	dWE(1).Potential/dt < 1E-06 V/s
9.44874	-0.00467834	8	81	-0.000223794	dWE(1).Potential/dt < 1E-06 V/s
9.54874	-0.00470581	8.1	82	-0.000325513	dWE(1).Potential/dt < 1E-06 V/s
9.64874	-0.00473022	8.2	83	-0.000198375	dWE(1).Potential/dt < 1E-06 V/s
9.74874	-0.00475159	8.3	84	-0.000198358	dWE(1).Potential/dt < 1E-06 V/s
9.84874	-0.0047699	8.4	85	-0.000167857	dWE(1).Potential/dt < 1E-06 V/s
9.94874	-0.00479126	8.5	86	-0.000249216	dWE(1).Potential/dt < 1E-06 V/s
10.0487	-0.00480957	8.6	87	-0.000147511	dWE(1).Potential/dt < 1E-06 V/s
10.1487	-0.00481873	8.7	88	-2.54235e-05	dWE(1).Potential/dt < 1E-06 V/s
10.2487	-0.00482788	8.8	89	-0.000122072	dWE(1).Potential/dt < 1E-06 V/s
10.3487	-0.00484314	8.9	90	-0.000203454	dWE(1).Potential/dt < 1E-06 V/s
10.4487	-0.00484924	9	91	3.56045e-05
10.5487	-0.0048584	9.1	92	-0.000147498	dWE(1).Potential/dt < 1E-06 V/s
10.6487	-0.00487061	9.2	93	-0.000137341	dWE(1).Potential/dt < 1E-06 V/s
10.7487	-0.00487671	9.3	94	3.10441e-09	dWE(1).Potential/dt < 1E-06 V/s
10.8487	-0.00488892	9.4	95	-0.00019327	dWE(1).Potential/dt < 1E-06 V/s
10.9487	-0.00489807	9.5	96	-4.57869e-05	dWE(1).Potential/dt < 1E-06 V/s
11.0487	-0.00490417	9.6	97	-4.57698e-05	dWE(1).Potential/dt < 1E-06 V/s
11.1487	-0.00491028	9.7	98	-7.12105e-05	dWE(1).Potential/dt < 1E-06 V/s
11.2487	-0.00492249	9.8	99	-0.000172934	dWE(1).Potential/dt < 1E-06 V/s
11.3487	-0.00492554	9.9	100	6.61348e-05
11.4487	-0.00494385	10	101	-0.000340786	dWE(1).Potential/dt < 1E-06 V/s
11.5487	-0.00495605	10.1	102	-2.03385e-05	dWE(1).Potential/dt < 1E-06 V/s
11.6487	-0.00497131	10.2	103	-0.000198362	dWE(1).Potential/dt < 1E-06 V/s
11.7487	-0.00498352	10.3	104	-8.64702e-05	dWE(1).Potential/dt < 1E-06 V/s
11.8487	-0.00499878	10.4	105	-0.000188186	dWE(1).Potential/dt < 1E-06 V/s
11.9487	-0.00499878	10.5	106	0.00013733
12.0487	-0.00502319	10.6	107	-0.000498455	dWE(1).Potential/dt < 1E-06 V/s
12.1487	-0.00504456	10.7	108	-0.000106815	dWE(1).Potential/dt < 1E-06 V/s
12.2487	-0.00505676	10.8	109	-5.59399e-05	dWE(1).Potential/dt < 1E-06 V/s
12.3487	-0.00507507	10.9	110	-0.000264499	dWE(1).Potential/dt < 1E-06 V/s
12.4487	-0.00508728	11	111	-5.08486e-05	dWE(1).Potential/dt < 1E-06 V/s
12.5487	-0.00510559	11.1	112	-0.000254327	dWE(1).Potential/dt < 1E-06 V/s
12.6487	-0.00512085	11.2	113	-0.000106802	dWE(1).Potential/dt < 1E-06 V/s
12.7487	-0.00513611	11.3	114	-0.000162759	dWE(1).Potential/dt < 1E-06 V/s
12.8487	-0.00514832	11.4	115	-9.66325e-05	dWE(1).Potential/dt < 1E-06 V/s
12.9487	-0.00516357	11.5	116	-0.0001882	dWE(1).Potential/dt < 1E-06 V/s
13.0487	-0.00516968	11.6	117	2.54329e-05
13.1487	-0.00517883	11.7	118	-0.000147498	dWE(1).Potential/dt < 1E-06 V/s
13.2487	-0.00518799	11.8	119	-8.13867e-05	dWE(1).Potential/dt < 1E-06 V/s
13.3487	-0.00519714	11.9	120	-9.15521e-05	dWE(1).Potential/dt < 1E-06 V/s
13.4487	-0.0052002	12	121	2.03572e-05
13.5487	-0.0052124	12.1	122	-0.000218718	dWE(1).Potential/dt < 1E-06 V/s
13.6487	-0.00522766	12.2	123	-0.000147495	dWE(1).Potential/dt < 1E-06 V/s
13.7487	-0.00523682	12.3	124	-3.05194e-05	dWE(1).Potential/dt < 1E-06 V/s
13.8487	-0.00524902	12.4	125	-0.000167848	dWE(1).Potential/dt < 1E-06 V/s
13.9487	-0.00525513	12.5	126	1.5522e-09	dWE(1).Potential/dt < 1E-06 V/s
14.0487	-0.00526733	12.6	127	-0.00019329	dWE(1).Potential/dt < 1E-06 V/s
14.1487	-0.00527649	12.7	128	-4.57652e-05	dWE(1).Potential/dt < 1E-06 V/s
14.2487	-0.00528564	12.8	129	-0.000101727	dWE(1).Potential/dt < 1E-06 V/s
14.3487	-0.00528564	12.9	130	7.62908e-05
14.4487	-0.00529175	13	131	-0.000142415	dWE(1).Potential/dt < 1E-06 V/s
14.5487	-0.0052887	13.1	132	0.000127155
14.6487	-0.00529175	13.2	133	-0.000111884	dWE(1).Potential/dt < 1E-06 V/s
14.7487	-0.00529785	13.3	134	-6.61332e-05	dWE(1).Potential/dt < 1E-06 V/s
14.8487	-0.0052948	13.4	135	0.000116988
14.9487	-0.0053009	13.5	136	-0.000167846	dWE(1).Potential/dt < 1E-06 V/s
15.0487	-0.0052948	13.6	137	0.000193271
15.1487	-0.00529785	13.7	138	-0.000147503	dWE(1).Potential/dt < 1E-06 V/s
15.2487	-0.0052948	13.8	139	0.0001119
15.3487	-0.00528564	13.9	140	0.000122072
15.4487	-0.00528259	14	141	-4.07019e-05	dWE(1).Potential/dt < 1E-06 V/s
15.5487	-0.00528259	14.1	142	-5.08502e-06	dWE(1).Potential/dt < 1E-06 V/s
15.6487	-0.00527039	14.2	143	0.000233971
15.7487	-0.00527344	14.3	144	-0.000198375	dWE(1).Potential/dt < 1E-06 V/s
15.8487	-0.00526428	14.4	145	0.000244152
15.9487	-0.00525818	14.5	146	-5.09278e-06	dWE(1).Potential/dt < 1E-06 V/s
16.0487	-0.00525513	14.6	147	1.5269e-05
16.1487	-0.00524292	14.7	148	0.000208523
16.2487	-0.00524597	14.8	149	-0.000188175	dWE(1).Potential/dt < 1E-06 V/s
16.3487	-0.00523987	14.9	150	0.000188188
16.4487	-0.00522766	15	151	0.000142407
16.5487	-0.00522156	15.1	152	-1.01669e-05	dWE(1).Potential/dt < 1E-06 V/s
16.6487	-0.00521545	15.2	153	8.13836e-05
16.7487	-0.0052063	15.3	154	0.000116976
16.8487	-0.0052063	15.4	155	-8.64671e-05	dWE(1).Potential/dt < 1E-06 V/s
16.9487	-0.00519714	15.5	156	0.000198362
17.0487	-0.00519714	15.6	157	-0.000106807	dWE(1).Potential/dt < 1E-06 V/s
17.1487	-0.00519714	15.7	158	3.05194e-05
17.2487	-0.00519714	15.8	159	1.5522e-09	dWE(1).Potential/dt < 1E-06 V/s
17.3487	-0.00519409	15.9	160	5.59554e-05
17.4487	-0.00519714	16	161	-9.15661e-05	dWE(1).Potential/dt < 1E-06 V/s
17.5487	-0.00519409	16.1	162	0.000101739
17.6487	-0.00519409	16.2	163	-4.57854e-05	dWE(1).Potential/dt < 1E-06 V/s
17.7487	-0.0052002	16.3	164	-0.000101724	dWE(1).Potential/dt < 1E-06 V/s
17.8487	-0.00519714	16.4	165	0.000127155
17.9487	-0.00519104	16.5	166	5.59523e-05
18.0487	-0.00519104	16.6	167	-6.1042e-05	dWE(1).Potential/dt < 1E-06 V/s
18.1487	-0.00518188	16.7	168	0.000188191
18.2487	-0.00518188	16.8	169	-0.000106807	dWE(1).Potential/dt < 1E-06 V/s
18.3487	-0.00517578	16.9	170	0.000142415
18.4487	-0.00517273	17	171	-1.52597e-05	dWE(1).Potential/dt < 1E-06 V/s
18.5487	-0.00516357	17.1	172	0.000152589
18.6487	-0.00516052	17.2	173	-4.07019e-05	dWE(1).Potential/dt < 1E-06 V/s
18.7487	-0.00515747	17.3	174	5.08688e-05
18.8487	-0.00515137	17.4	175	8.64624e-05
18.9487	-0.00513611	17.5	176	0.000218715
19.0487	-0.00513	17.6	177	-4.57776e-05	dWE(1).Potential/dt < 1E-06 V/s
19.1487	-0.0051178	17.7	178	0.000203452
19.2487	-0.00510864	17.8	179	4.57729e-05
19.3487	-0.00509949	17.9	180	0.000101722
19.4487	-0.00508728	18	181	0.000147507
19.5487	-0.00507507	18.1	182	0.000111886
19.6487	-0.00506287	18.2	183	0.000122087
19.7487	-0.00505676	18.3	184	1.01685e-05
19.8487	-0.00504456	18.4	185	0.00019327
19.9487	-0.00503235	18.5	186	0.000101741
20.0487	-0.00502319	18.6	187	6.61099e-05
20.1487	-0.00501404	18.7	188	0.000101727
20.2487	-0.00500488	18.8	189	9.15583e-05
20.3487	-0.00500183	18.9	190	-2.03432e-05	dWE(1).Potential/dt < 1E-06 V/s
20.4487	-0.00499573	19	191	0.000106812
20.5487	-0.00498352	19.1	192	0.000162752
20.6487	-0.00497742	19.2	193	-1.01669e-05	dWE(1).Potential/dt < 1E-06 V/s
20.7487	-0.00497131	19.3	194	8.13836e-05
20.8487	-0.00495911	19.4	195	0.000172929
20.9487	-0.00495605	19.5	196	-6.61146e-05	dWE(1).Potential/dt < 1E-06 V/s
21.0487	-0.00494995	19.6	197	0.000116983
21.1487	-0.0049408	19.7	198	0.00010681
21.2487	-0.00493469	19.8	199	2.54344e-05
21.3487	-0.00492859	19.9	200	7.12011e-05
21.4487	-0.00491943	20	201	0.00011699
21.5487	-0.00491638	20.1	202	-3.05303e-05	dWE(1).Potential/dt < 1E-06 V/s
21.6487	-0.00490417	20.2	203	0.000218718
21.7487	-0.00490417	20.3	204	-0.000132249	dWE(1).Potential/dt < 1E-06 V/s
21.8487	-0.00490112	20.4	205	9.66309e-05
21.9487	-0.00489197	20.5	206	0.000132246
22.0487	-0.00488281	20.6	207	7.12136e-05
22.1487	-0.00487976	20.7	208	-2.03432e-05	dWE(1).Potential/dt < 1E-06 V/s
22.2487	-0.00487061	20.8	209	0.000162753
22.3487	-0.0048645	20.9	210	1.52675e-05
22.4487	-0.00485229	21	211	0.000183101
22.5487	-0.00484619	21.1	212	-1.01731e-05	dWE(1).Potential/dt < 1E-06 V/s
22.6487	-0.00483704	21.2	213	0.000137336
22.7487	-0.00483093	21.3	214	2.54251e-05
22.8487	-0.00482178	21.4	215	0.000127164
22.9487	-0.00481873	21.5	216	-3.05163e-05	dWE(1).Potential/dt < 1E-06 V/s
23.0487	-0.00480652	21.6	217	0.000218707
23.1487	-0.00479431	21.7	218	9.1549e-05
23.2487	-0.00479431	21.8	219	-0.000101728	dWE(1).Potential/dt < 1E-06 V/s
23.3487	-0.00478516	21.9	220	0.000208535
23.4487	-0.004776	22	221	6.1042e-05
23.5487	-0.00476685	22.1	222	9.15521e-05
23.6487	-0.00476379	22.2	223	-2.03572e-05	dWE(1).Potential/dt < 1E-06 V/s
23.7487	-0.00475769	22.3	224	0.000106823
23.8487	-0.00475159	22.4	225	5.08611e-05
23.9487	-0.00474548	22.5	226	6.10296e-05
24.0487	-0.00473633	22.6	227	0.00011699
24.1487	-0.00473022	22.7	228	2.54235e-05
24.2487	-0.00472412	22.8	229	7.12089e-05
24.3487	-0.00471191	22.9	230	0.000172945
24.4487	-0.00470886	23	231	-6.61301e-05	dWE(1).Potential/dt < 1E-06 V/s
24.5487	-0.00470886	23.1	232	5.09278e-06
24.6487	-0.00470886	23.2	233	1.01731e-05
24.7487	-0.00471497	23.3	234	-0.000111894	dWE(1).Potential/dt < 1E-06 V/s
24.8487	-0.00472412	23.4	235	-9.66449e-05	dWE(1).Potential/dt < 1E-06 V/s
24.9487	-0.00473938	23.5	236	-0.000193273	dWE(1).Potential/dt < 1E-06 V/s
25.0487	-0.00474854	23.6	237	-2.03463e-05	dWE(1).Potential/dt < 1E-06 V/s
25.1487	-0.00476074	23.7	238	-0.000167848	dWE(1).Potential/dt < 1E-06 V/s
25.2487	-0.0047699	23.8	239	-5.59523e-05	dWE(1).Potential/dt < 1E-06 V/s
25.3487	-0.00476379	23.9	240	0.000178022
25.4487	-0.0047699	24	241	-0.000213627	dWE(1).Potential/dt < 1E-06 V/s
25.5487	-0.004776	24.1	242	-2.03385e-05	dWE(1).Potential/dt < 1E-06 V/s
25.6487	-0.004776	24.2	243	5.08595e-05
25.7487	-0.00476685	24.3	244	0.000147504
25.8487	-0.00476379	24.4	245	-5.0875e-05	dWE(1).Potential/dt < 1E-06 V/s
25.9487	-0.00475159	24.5	246	0.000218718
26.0487	-0.00475159	24.6	247	-0.000132249	dWE(1).Potential/dt < 1E-06 V/s
26.1487	-0.00473633	24.7	248	0.000320434
26.2487	-0.00473022	24.8	249	-6.61254e-05	dWE(1).Potential/dt < 1E-06 V/s
26.3487	-0.00476379	24.9	250	-0.000635784	dWE(1).Potential/dt < 1E-06 V/s
26.4487	-0.00470276	25	251	0.00153096
26.5487	-0.00468445	25.1	252	-0.00048828	dWE(1).Potential/dt < 1E-06 V/s
26.6487	-0.0046814	25.2	253	4.57807e-05
26.7487	-0.00466614	25.3	254	0.000305179
26.8487	-0.00466003	25.4	255	-5.59476e-05	dWE(1).Potential/dt < 1E-06 V/s
26.9487	-0.00464478	25.5	256	0.000259395
27.0487	-0.00463562	25.6	257	1.01731e-05
27.1487	-0.00462646	25.7	258	0.000111894
27.2487	-0.00461426	25.8	259	0.000147507
27.3487	-0.00460815	25.9	260	-9.31322e-09	dWE(1).Potential/dt < 1E-06 V/s
27.4487	-0.00459595	26	261	0.000193277
27.5487	-0.00458374	26.1	262	0.00010173
27.6487	-0.00457764	26.2	263	1.01638e-05
27.7487	-0.00456543	26.3	264	0.000193277
27.8487	-0.00455627	26.4	265	4.5776e-05
27.9487	-0.00454407	26.5	266	0.000157685
28.0487	-0.00453186	26.6	267	0.000111892
28.1487	-0.00452881	26.7	268	-4.57698e-05	dWE(1).Potential/dt < 1E-06 V/s
28.2487	-0.00452271	26.8	269	0.000116983
28.3487	-0.00451355	26.9	270	0.00010681
28.4487	-0.00450745	27	271	2.54344e-05
28.5487	-0.00450134	27.1	272	7.12011e-05
28.6487	-0.00448914	27.2	273	0.000172931
28.7487	-0.00448303	27.3	274	-1.01654e-05	dWE(1).Potential/dt < 1E-06 V/s
28.8487	-0.00447693	27.4	275	8.13789e-05
28.9487	-0.00446777	27.5	276	0.000116983
29.0487	-0.00446472	27.6	277	-3.05194e-05	dWE(1).Potential/dt < 1E-06 V/s
29.1487	-0.00445862	27.7	278	0.000106815
29.2487	-0.00445557	27.8	279	-5.08812e-06	dWE(1).Potential/dt < 1E-06 V/s
29.3487	-0.00444946	27.9	280	9.66356e-05
29.4487	-0.00443726	28	281	0.000162773
29.5487	-0.0044281	28.1	282	4.57652e-05
29.6487	-0.00442505	28.2	283	-1.01685e-05	dWE(1).Potential/dt < 1E-06 V/s
29.7487	-0.00441895	28.3	284	0.000106807
29.8487	-0.00441284	28.4	285	5.08657e-05
29.9487	-0.00440674	28.5	286	6.10389e-05
30.0487	-0.00440369	28.6	287	5.08036e-06
30.1487	-0.00440063	28.7	288	4.07019e-05
30.2487	-0.00438843	28.8	289	0.00019835
30.3487	-0.00439148	28.9	290	-0.000188175	dWE(1).Potential/dt < 1E-06 V/s
30.4487	-0.00438843	29	291	0.000132234
30.5487	-0.00437927	29.1	292	0.000122079
30.6487	-0.00437622	29.2	293	-4.06895e-05	dWE(1).Potential/dt < 1E-06 V/s
30.7487	-0.00437012	29.3	294	0.000106812
30.8487	-0.00436707	29.4	295	-5.09744e-06	dWE(1).Potential/dt < 1E-06 V/s
30.9487	-0.00436096	29.5	296	9.66495e-05
31.0487	-0.00435486	29.6	297	5.08611e-05
31.1487	-0.00435181	29.7	298	5.07571e-06
31.2487	-0.00435181	29.8	299	-1.52582e-05	dWE(1).Potential/dt < 1E-06 V/s
31.3487	-0.00434265	29.9	300	0.000178018
31.4487	-0.0043335	30	301	6.1042e-05
31.5487	-0.0043335	30.1	302	-7.6297e-05	dWE(1).Potential/dt < 1E-06 V/s
31.6487	-0.00432739	30.2	303	0.000142413
31.7487	-0.00432434	30.3	304	-1.52489e-05	dWE(1).Potential/dt < 1E-06 V/s
31.8487	-0.00432129	30.4	305	4.0674e-05
31.9487	-0.00431824	30.5	306	3.05241e-05
32.0487	-0.00431519	30.6	307	3.0521e-05
32.1487	-0.00430603	30.7	308	0.000142409
32.2487	-0.00430298	30.8	309	-4.06864e-05	dWE(1).Potential/dt < 1E-06 V/s
32.3487	-0.00429688	30.9	310	0.000106807
[...]
49.0487	-0.00353088	47.6	477	0.000101739
49.1487	-0.00352783	47.7	478	1.01623e-05
49.2487	-0.00353394	47.8	479	-0.000137325	dWE(1).Potential/dt < 1E-06 V/s
49.3487	-0.00353088	47.9	480	0.000137337
49.4487	-0.00352783	48	481	-1.00893e-08	dWE(1).Potential/dt < 1E-06 V/s
49.5487	-0.00353394	48.1	482	-0.000137325	dWE(1).Potential/dt < 1E-06 V/s
49.6487	-0.00353394	48.2	483	8.13836e-05
49.7487	-0.00353088	48.3	484	3.56099e-05
49.8487	-0.00352783	48.4	485	2.03354e-05
49.9487	-0.00353394	48.5	486	-0.000137325	dWE(1).Potential/dt < 1E-06 V/s
50.0487	-0.00353088	48.6	487	0.000137337
50.1487	-0.00353699	48.7	488	-0.000167859	dWE(1).Potential/dt < 1E-06 V/s
50.2487	-0.00354614	48.8	489	-8.64624e-05	dWE(1).Potential/dt < 1E-06 V/s
50.3487	-0.00353394	48.9	490	0.000310253
50.4487	-0.00352478	49	491	-5.07493e-06	dWE(1).Potential/dt < 1E-06 V/s
50.5487	-0.00353394	49.1	492	-0.000233975	dWE(1).Potential/dt < 1E-06 V/s
50.6487	-0.00352783	49.2	493	0.000249236
50.7487	-0.00353088	49.3	494	-0.000157673	dWE(1).Potential/dt < 1E-06 V/s
50.8487	-0.00352783	49.4	495	0.000111891
50.9487	-0.00353394	49.5	496	-0.000157671	dWE(1).Potential/dt < 1E-06 V/s
51.0487	-0.00353088	49.6	497	0.000137337
51.1487	-0.00353699	49.7	498	-0.000167859	dWE(1).Potential/dt < 1E-06 V/s
51.2487	-0.00354309	49.8	499	-3.05148e-05	dWE(1).Potential/dt < 1E-06 V/s
51.3487	-0.00354309	49.9	500	5.08673e-05
51.4487	-0.00354614	50	501	-7.629e-05	dWE(1).Potential/dt < 1E-06 V/s
51.5487	-0.00355225	50.1	502	-7.6304e-05	dWE(1).Potential/dt < 1E-06 V/s
51.6487	-0.00355835	50.2	503	-5.08603e-05	dWE(1).Potential/dt < 1E-06 V/s
51.7487	-0.0035614	50.3	504	-5.08036e-06	dWE(1).Potential/dt < 1E-06 V/s
51.8487	-0.00357056	50.4	505	-0.000152596	dWE(1).Potential/dt < 1E-06 V/s
51.9487	-0.00357666	50.5	506	-1.52527e-05	dWE(1).Potential/dt < 1E-06 V/s
52.0487	-0.00358582	50.6	507	-0.000127164	dWE(1).Potential/dt < 1E-06 V/s
52.1487	-0.00360107	50.7	508	-0.000193274	dWE(1).Potential/dt < 1E-06 V/s
52.2487	-0.00359802	50.8	509	0.000203449
52.3487	-0.00360413	50.9	510	-0.000198365	dWE(1).Potential/dt < 1E-06 V/s
52.4487	-0.00361328	51	511	-8.6464e-05	dWE(1).Potential/dt < 1E-06 V/s
52.5487	-0.00361938	51.1	512	-2.54336e-05	dWE(1).Potential/dt < 1E-06 V/s
52.6487	-0.00362549	51.2	513	-7.12066e-05	dWE(1).Potential/dt < 1E-06 V/s
52.7487	-0.00363159	51.3	514	-6.10288e-05	dWE(1).Potential/dt < 1E-06 V/s
52.8487	-0.00364075	51.4	515	-0.00011699	dWE(1).Potential/dt < 1E-06 V/s
52.9487	-0.00364685	51.5	516	-2.54235e-05	dWE(1).Potential/dt < 1E-06 V/s
53.0487	-0.00365601	51.6	517	-0.000127163	dWE(1).Potential/dt < 1E-06 V/s
53.1487	-0.00367126	51.7	518	-0.000193273	dWE(1).Potential/dt < 1E-06 V/s
53.2487	-0.00368042	51.8	519	-2.03401e-05	dWE(1).Potential/dt < 1E-06 V/s
53.3487	-0.00368347	51.9	520	1.5522e-09	dWE(1).Potential/dt < 1E-06 V/s
53.4487	-0.00369568	52	521	-0.000218716	dWE(1).Potential/dt < 1E-06 V/s
53.5487	-0.00370789	52.1	522	-9.15467e-05	dWE(1).Potential/dt < 1E-06 V/s
53.6487	-0.00372314	52.2	523	-0.000178021	dWE(1).Potential/dt < 1E-06 V/s
53.7487	-0.0037384	52.3	524	-0.000142415	dWE(1).Potential/dt < 1E-06 V/s
53.8487	-0.00376282	52.4	525	-0.000320437	dWE(1).Potential/dt < 1E-06 V/s
53.9487	-0.00377808	52.5	526	-4.57714e-05	dWE(1).Potential/dt < 1E-06 V/s
54.0487	-0.00379028	52.6	527	-0.00012715	dWE(1).Potential/dt < 1E-06 V/s
54.1487	-0.00380859	52.7	528	-0.000244154	dWE(1).Potential/dt < 1E-06 V/s
54.2487	-0.0038269	52.8	529	-0.00016275	dWE(1).Potential/dt < 1E-06 V/s
54.3487	-0.00382996	52.9	530	9.66325e-05
54.4487	-0.00384216	53	531	-0.000249227	dWE(1).Potential/dt < 1E-06 V/s
54.5487	-0.00385437	53.1	532	-9.15575e-05	dWE(1).Potential/dt < 1E-06 V/s
54.6487	-0.00387268	53.2	533	-0.000233961	dWE(1).Potential/dt < 1E-06 V/s
54.7487	-0.00388794	53.3	534	-0.000106819	dWE(1).Potential/dt < 1E-06 V/s
54.8487	-0.00389709	53.4	535	-5.08611e-05	dWE(1).Potential/dt < 1E-06 V/s
54.9487	-0.00391541	53.5	536	-0.000279753	dWE(1).Potential/dt < 1E-06 V/s
55.0487	-0.00393066	53.6	537	-9.66301e-05	dWE(1).Potential/dt < 1E-06 V/s
55.1487	-0.00394897	53.7	538	-0.000218701	dWE(1).Potential/dt < 1E-06 V/s
55.2487	-0.00396729	53.8	539	-0.000172939	dWE(1).Potential/dt < 1E-06 V/s
55.3487	-0.0039856	53.9	540	-0.000183109	dWE(1).Potential/dt < 1E-06 V/s
55.4487	-0.00400696	54	541	-0.000239055	dWE(1).Potential/dt < 1E-06 V/s
55.5487	-0.00402527	54.1	542	-0.00014749	dWE(1).Potential/dt < 1E-06 V/s
55.6487	-0.00404663	54.2	543	-0.000249237	dWE(1).Potential/dt < 1E-06 V/s
55.7487	-0.00406799	54.3	544	-0.000203449	dWE(1).Potential/dt < 1E-06 V/s
55.8487	-0.00408936	54.4	545	-0.000213617	dWE(1).Potential/dt < 1E-06 V/s
55.9487	-0.00411072	54.5	546	-0.000213624	dWE(1).Potential/dt < 1E-06 V/s
56.0487	-0.00413513	54.6	547	-0.000269579	dWE(1).Potential/dt < 1E-06 V/s
56.1487	-0.00415955	54.7	548	-0.000233967	dWE(1).Potential/dt < 1E-06 V/s
56.2487	-0.00418396	54.8	549	-0.000244138	dWE(1).Potential/dt < 1E-06 V/s
56.3487	-0.00420837	54.9	550	-0.000244137	dWE(1).Potential/dt < 1E-06 V/s
56.4487	-0.00422974	55	551	-0.0001882	dWE(1).Potential/dt < 1E-06 V/s
56.5487	-0.00424194	55.1	552	-5.59445e-05	dWE(1).Potential/dt < 1E-06 V/s
56.6487	-0.00426636	55.2	553	-0.000376388	dWE(1).Potential/dt < 1E-06 V/s
56.7487	-0.00428467	55.3	554	-9.15397e-05	dWE(1).Potential/dt < 1E-06 V/s
56.8487	-0.00429993	55.4	555	-0.000147503	dWE(1).Potential/dt < 1E-06 V/s
56.9487	-0.00431519	55.5	556	-0.000162756	dWE(1).Potential/dt < 1E-06 V/s
57.0487	-0.00433655	55.6	557	-0.000264492	dWE(1).Potential/dt < 1E-06 V/s
57.1487	-0.00435791	55.7	558	-0.000193277	dWE(1).Potential/dt < 1E-06 V/s
57.2487	-0.00438232	55.8	559	-0.000269571	dWE(1).Potential/dt < 1E-06 V/s
57.3487	-0.00440979	55.9	560	-0.000289918	dWE(1).Potential/dt < 1E-06 V/s
57.4487	-0.00443115	56	561	-0.000152586	dWE(1).Potential/dt < 1E-06 V/s
57.5487	-0.00445862	56.1	562	-0.000345878	dWE(1).Potential/dt < 1E-06 V/s
57.6487	-0.00448608	56.2	563	-0.000254307	dWE(1).Potential/dt < 1E-06 V/s
57.7487	-0.00451965	56.3	564	-0.000386562	dWE(1).Potential/dt < 1E-06 V/s
57.8487	-0.00454407	56.4	565	-0.000147494	dWE(1).Potential/dt < 1E-06 V/s
57.9487	-0.00456848	56.5	566	-0.000274659	dWE(1).Potential/dt < 1E-06 V/s
58.0487	-0.00459595	56.6	567	-0.0003001	dWE(1).Potential/dt < 1E-06 V/s
58.1487	-0.00461731	56.7	568	-0.000152585	dWE(1).Potential/dt < 1E-06 V/s
58.2487	-0.00463867	56.8	569	-0.000233962	dWE(1).Potential/dt < 1E-06 V/s
58.3487	-0.00466003	56.9	570	-0.000213624	dWE(1).Potential/dt < 1E-06 V/s
58.4487	-0.00468445	57	571	-0.000269579	dWE(1).Potential/dt < 1E-06 V/s
58.5487	-0.00470581	57.1	572	-0.000178013	dWE(1).Potential/dt < 1E-06 V/s
58.6487	-0.00472412	57.2	573	-0.000167857	dWE(1).Potential/dt < 1E-06 V/s
58.7487	-0.00474243	57.3	574	-0.000193262	dWE(1).Potential/dt < 1E-06 V/s
58.8487	-0.00476074	57.4	575	-0.000183112	dWE(1).Potential/dt < 1E-06 V/s
58.9487	-0.0047821	57.5	576	-0.00023905	dWE(1).Potential/dt < 1E-06 V/s
59.0487	-0.00480042	57.6	577	-0.000147512	dWE(1).Potential/dt < 1E-06 V/s
59.1487	-0.00481873	57.7	578	-0.000193262	dWE(1).Potential/dt < 1E-06 V/s
59.2487	-0.00483704	57.8	579	-0.000183112	dWE(1).Potential/dt < 1E-06 V/s
59.3487	-0.00485229	57.9	580	-0.000127155	dWE(1).Potential/dt < 1E-06 V/s
59.4487	-0.00486755	58	581	-0.000162761	dWE(1).Potential/dt < 1E-06 V/s
59.5487	-0.00488586	58.1	582	-0.000208542	dWE(1).Potential/dt < 1E-06 V/s
59.6487	-0.00489807	58.2	583	-6.10327e-05	dWE(1).Potential/dt < 1E-06 V/s
59.7487	-0.00491333	58.3	584	-0.000198365	dWE(1).Potential/dt < 1E-06 V/s
59.8487	-0.00492859	58.4	585	-0.000142415	dWE(1).Potential/dt < 1E-06 V/s
59.9487	-0.00494385	58.5	586	-0.000152588	dWE(1).Potential/dt < 1E-06 V/s
60.0487	-0.00496216	58.6	587	-0.000208542	dWE(1).Potential/dt < 1E-06 V/s
60.1487	-0.00498352	58.7	588	-0.000228882	dWE(1).Potential/dt < 1E-06 V/s
60.2487	-0.00499878	58.8	589	-9.1549e-05	dWE(1).Potential/dt < 1E-06 V/s
60.3487	-0.00501099	58.9	590	-0.000116977	dWE(1).Potential/dt < 1E-06 V/s
60.4487	-0.00502319	59	591	-0.000132259	dWE(1).Potential/dt < 1E-06 V/s
60.5487	-0.0050415	59.1	592	-0.000233959	dWE(1).Potential/dt < 1E-06 V/s
60.6487	-0.00505676	59.2	593	-0.000106818	dWE(1).Potential/dt < 1E-06 V/s
60.7487	-0.00506287	59.3	594	5.08812e-06
60.8487	-0.00507507	59.4	595	-0.000203452	dWE(1).Potential/dt < 1E-06 V/s
60.9487	-0.005078125	59.5	596	6.61348e-05
61.0487	-0.00508423	59.6	597	-0.000116996	dWE(1).Potential/dt < 1E-06 V/s
61.1487	-0.00509338	59.7	598	-0.000106802	dWE(1).Potential/dt < 1E-06 V/s
61.2487	-0.00510559	59.8	599	-0.000137336	dWE(1).Potential/dt < 1E-06 V/s
61.3487	-0.00512085	59.9	600	-0.00016784	dWE(1).Potential/dt < 1E-06 V/s