File: data/Z_measu_on_silk_fibroin/OCP_GNP0.5%_SF1.txt
Time (s)	WE(1).Potential (V)	Corrected time (s)	Index	dWE(1).Potential/dt (V/s)	Cutoffs	OCP value (V)
1.41274	0.00826721	0	1	0	dWE(1).Potential/dt < 1E-06 V/s	0.0112355
1.51274	0.00826111	0.1	2	-6.10296e-05	dWE(1).Potential/dt < 1E-06 V/s
1.61274	0.0084198	0.2	3	0.00241087
1.71274	0.0086731	0.3	4	0.00277204
1.81274	0.00843811	0.4	5	-0.00673422	dWE(1).Potential/dt < 1E-06 V/s
1.91274	0.00844421	0.5	6	0.00369773
2.01274	0.00844421	0.6	7	-0.000854488	dWE(1).Potential/dt < 1E-06 V/s
2.11274	0.00841064	0.7	8	-0.00059509	dWE(1).Potential/dt < 1E-06 V/s
2.21274	0.0085907	0.8	9	0.00369261
2.31274	0.008984375	0.9	10	0.00500488
2.41274	0.0086792	1	11	-0.00958759	dWE(1).Potential/dt < 1E-06 V/s
2.51274	0.00864258	1.1	12	0.00420127
2.61274	0.00862732	1.2	13	-0.000869753	dWE(1).Potential/dt < 1E-06 V/s
2.71274	0.00862427	1.3	14	3.10441e-09	dWE(1).Potential/dt < 1E-06 V/s
2.81274	0.00861511	1.4	15	-0.000183129	dWE(1).Potential/dt < 1E-06 V/s
2.91274	0.00861816	1.5	16	0.000152594
3.01274	0.00858765	1.6	17	-0.000625603	dWE(1).Potential/dt < 1E-06 V/s
3.11274	0.00856934	1.7	18	3.05163e-05
3.21274	0.00854187	1.8	19	-0.000391649	dWE(1).Potential/dt < 1E-06 V/s
3.31274	0.0085144	1.9	20	-0.000244128	dWE(1).Potential/dt < 1E-06 V/s
3.41274	0.00852051	2	21	0.000340783
3.51274	0.0085083	2.1	22	-0.00038657	dWE(1).Potential/dt < 1E-06 V/s
3.61274	0.0085083	2.2	23	0.000162758
3.71274	0.00848999	2.3	24	-0.000376372	dWE(1).Potential/dt < 1E-06 V/s
3.81274	0.00854492	2.4	25	0.0012207
3.91274	0.00860596	2.5	26	0.000417077
4.01274	0.00872192	2.6	27	0.00159708
4.11274	0.00881958	2.7	28	0.000640874
4.21274	0.00881653	2.8	29	-0.000808723	dWE(1).Potential/dt < 1E-06 V/s
4.31274	0.00877991	2.9	30	-0.000310236	dWE(1).Potential/dt < 1E-06 V/s
4.41274	0.00870972	3	31	-0.000869768	dWE(1).Potential/dt < 1E-06 V/s
4.51274	0.0086853	3.1	32	0.00024925
4.61274	0.00859375	3.2	33	-0.00162762	dWE(1).Potential/dt < 1E-06 V/s
4.71274	0.00855408	3.3	34	0.000259383
4.81274	0.00846863	3.4	35	-0.00140888	dWE(1).Potential/dt < 1E-06 V/s
4.91274	0.00856323	3.5	36	0.00259908
5.01274	0.00839844	3.6	37	-0.00440979	dWE(1).Potential/dt < 1E-06 V/s
5.11274	0.00825806	3.7	38	-0.000335686	dWE(1).Potential/dt < 1E-06 V/s
5.21274	0.008255	3.8	39	0.0010325
5.31274	0.00819092	3.9	40	-0.00160726	dWE(1).Potential/dt < 1E-06 V/s
5.41274	0.00809631	4	41	-0.000996903	dWE(1).Potential/dt < 1E-06 V/s
5.51274	0.00813599	4.1	42	0.00161743
5.61274	0.00810547	4.2	43	-0.0013377	dWE(1).Potential/dt < 1E-06 V/s
5.71274	0.00809631	4.3	44	0.000320418
5.81274	0.00806274	4.4	45	-0.00061033	dWE(1).Potential/dt < 1E-06 V/s
5.91274	0.00795288	4.5	46	-0.00165304	dWE(1).Potential/dt < 1E-06 V/s
6.01274	0.00778503	4.6	47	-0.00190735	dWE(1).Potential/dt < 1E-06 V/s
6.11274	0.00786438	4.7	48	0.00304667
6.21274	0.00784912	4.8	49	-0.00176492	dWE(1).Potential/dt < 1E-06 V/s
6.31274	0.00783386	4.9	50	0.000162767
6.41274	0.00782166	5	51	-9.66526e-05	dWE(1).Potential/dt < 1E-06 V/s
6.51274	0.00779114	5.1	52	-0.000467927	dWE(1).Potential/dt < 1E-06 V/s
6.61274	0.00775146	5.2	53	-0.000411986	dWE(1).Potential/dt < 1E-06 V/s
6.71274	0.00775757	5.3	54	0.000473019
6.81274	0.00779419	5.4	55	0.000467926
6.91274	0.0079071	5.5	56	0.00166323
7.01274	0.00765076	5.6	57	-0.005895	dWE(1).Potential/dt < 1E-06 V/s
7.11274	0.00758972	5.7	58	0.00224813
7.21274	0.00672607	5.8	59	-0.015976	dWE(1).Potential/dt < 1E-06 V/s
7.31274	0.00740967	5.9	60	0.022405
7.41274	0.0074585	6	61	-0.0099589	dWE(1).Potential/dt < 1E-06 V/s
7.51274	0.00748901	6.1	62	0.00226848
7.61274	0.0075531	6.2	63	0.000981656
7.71274	0.00758057	6.3	64	-0.000142427	dWE(1).Potential/dt < 1E-06 V/s
7.81274	0.00749512	6.4	65	-0.00167336	dWE(1).Potential/dt < 1E-06 V/s
7.91274	0.00747375	6.5	66	0.000696791
8.01274	0.00745239	6.6	67	-0.000427226	dWE(1).Potential/dt < 1E-06 V/s
8.11274	0.00738831	6.7	68	-0.000996915	dWE(1).Potential/dt < 1E-06 V/s
8.21274	0.00734253	6.8	69	-0.000162767	dWE(1).Potential/dt < 1E-06 V/s
8.31274	0.00726929	6.9	70	-0.00102235	dWE(1).Potential/dt < 1E-06 V/s
8.41274	0.00722351	7	71	-0.00013733	dWE(1).Potential/dt < 1E-06 V/s
8.51274	0.00716858	7.1	72	-0.000717171	dWE(1).Potential/dt < 1E-06 V/s
8.61274	0.00708313	7.2	73	-0.00107826	dWE(1).Potential/dt < 1E-06 V/s
8.71274	0.00704041	7.3	74	3.0493e-05
8.81274	0.00699768	7.4	75	-0.000569656	dWE(1).Potential/dt < 1E-06 V/s
8.91274	0.00697632	7.5	76	-3.5592e-05	dWE(1).Potential/dt < 1E-06 V/s
9.01274	0.00699158	7.6	77	0.000386544
9.11274	0.00699768	7.7	78	-0.000137334	dWE(1).Potential/dt < 1E-06 V/s
9.21274	0.00697327	7.8	79	-0.000467924	dWE(1).Potential/dt < 1E-06 V/s
9.31274	0.00696106	7.9	80	8.13821e-05
9.41274	0.00696411	8	81	0.000116966
9.51274	0.00696411	8.1	82	-7.62939e-05	dWE(1).Potential/dt < 1E-06 V/s
9.61274	0.00694885	8.2	83	-0.000269577	dWE(1).Potential/dt < 1E-06 V/s
9.71274	0.00693359	8.3	84	-0.00010173	dWE(1).Potential/dt < 1E-06 V/s
9.81274	0.00688782	8.4	85	-0.000712069	dWE(1).Potential/dt < 1E-06 V/s
9.91274	0.0068512	8.5	86	-0.000188188	dWE(1).Potential/dt < 1E-06 V/s
10.0127	0.00682678	8.6	87	-0.000172939	dWE(1).Potential/dt < 1E-06 V/s
10.1127	0.00682068	8.7	88	5.08704e-05
10.2127	0.00681458	8.8	89	-0.000122072	dWE(1).Potential/dt < 1E-06 V/s
10.3127	0.00679016	8.9	90	-0.000396736	dWE(1).Potential/dt < 1E-06 V/s
10.4127	0.00677185	9	91	-7.12089e-05	dWE(1).Potential/dt < 1E-06 V/s
10.5127	0.00674438	9.1	92	-0.000371295	dWE(1).Potential/dt < 1E-06 V/s
10.6127	0.00674133	9.2	93	0.000203444
10.7127	0.00671692	9.3	94	-0.000503532	dWE(1).Potential/dt < 1E-06 V/s
10.8127	0.00671387	9.4	95	0.000218706
10.9127	0.00670776	9.5	96	-0.00015767	dWE(1).Potential/dt < 1E-06 V/s
11.0127	0.00669556	9.6	97	-0.000162773	dWE(1).Potential/dt < 1E-06 V/s
11.1127	0.00666809	9.7	98	-0.000381463	dWE(1).Potential/dt < 1E-06 V/s
11.2127	0.00665894	9.8	99	0.000111894
11.3127	0.00665588	9.9	100	-4.06771e-05	dWE(1).Potential/dt < 1E-06 V/s
11.4127	0.00666199	10	101	0.00011698
11.5127	0.00666199	10.1	102	-8.13836e-05	dWE(1).Potential/dt < 1E-06 V/s
11.6127	0.00664978	10.2	103	-0.00020346	dWE(1).Potential/dt < 1E-06 V/s
11.7127	0.00662842	10.3	104	-0.000249223	dWE(1).Potential/dt < 1E-06 V/s
11.8127	0.00663147	10.4	105	0.000264494
11.9127	0.00661011	10.5	106	-0.000498459	dWE(1).Potential/dt < 1E-06 V/s
12.0127	0.00661011	10.6	107	0.000259406
12.1127	0.00662537	10.7	108	0.00020854
12.2127	0.00657043	10.8	109	-0.0011851	dWE(1).Potential/dt < 1E-06 V/s
12.3127	0.00653687	10.9	110	7.62846e-05
12.4127	0.00655212	11	111	0.000488289
12.5127	0.00656128	11.1	112	-0.000122067	dWE(1).Potential/dt < 1E-06 V/s
12.6127	0.00655823	11.2	113	-0.000111906	dWE(1).Potential/dt < 1E-06 V/s
12.7127	0.00655518	11.3	114	1.01778e-05
12.8127	0.00653076	11.4	115	-0.000422168	dWE(1).Potential/dt < 1E-06 V/s
12.9127	0.00653076	11.5	116	0.000274662
13.0127	0.00652771	11.6	117	-0.000137334	dWE(1).Potential/dt < 1E-06 V/s
13.1127	0.00652161	11.7	118	-7.62939e-05	dWE(1).Potential/dt < 1E-06 V/s
13.2127	0.0065033	11.8	119	-0.000274647	dWE(1).Potential/dt < 1E-06 V/s
13.3127	0.00650024	11.9	120	0.000137323
13.4127	0.00652466	12	121	0.000422164
13.5127	0.00652161	12.1	122	-0.000350963	dWE(1).Potential/dt < 1E-06 V/s
13.6127	0.00651855	12.2	123	6.10513e-05
13.7127	0.00653687	12.3	124	0.000361116
13.8127	0.00652161	12.4	125	-0.000503533	dWE(1).Potential/dt < 1E-06 V/s
13.9127	0.00651855	12.5	126	0.000183114
14.0127	0.00648804	12.6	127	-0.000574748	dWE(1).Potential/dt < 1E-06 V/s
14.1127	0.00646057	12.7	128	-0.000157678	dWE(1).Potential/dt < 1E-06 V/s
14.2127	0.00643921	12.8	129	-0.000172925	dWE(1).Potential/dt < 1E-06 V/s
14.3127	0.00646362	12.9	130	0.000605263
14.4127	0.00649414	13	131	0.000203446
14.5127	0.00645752	13.1	132	-0.000946043	dWE(1).Potential/dt < 1E-06 V/s
14.6127	0.00645752	13.2	133	0.000528977
14.7127	0.00645752	13.3	134	-0.000122067	dWE(1).Potential/dt < 1E-06 V/s
14.8127	0.00643616	13.4	135	-0.000391649	dWE(1).Potential/dt < 1E-06 V/s
14.9127	0.00644531	13.5	136	0.000417074
15.0127	0.00646362	13.6	137	0.000157682
15.1127	0.00646973	13.7	138	-7.12182e-05	dWE(1).Potential/dt < 1E-06 V/s
15.2127	0.00647278	13.8	139	4.57854e-05
15.3127	0.00648499	13.9	140	0.000208534
15.4127	0.00648193	14	141	-0.000188195	dWE(1).Potential/dt < 1E-06 V/s
15.5127	0.00649414	14.1	142	0.000300094
15.6127	0.00649414	14.2	143	-0.000152594	dWE(1).Potential/dt < 1E-06 V/s
15.7127	0.00646362	14.3	144	-0.000518799	dWE(1).Potential/dt < 1E-06 V/s
15.8127	0.00648499	14.4	145	0.000747676
15.9127	0.00649109	14.5	146	-0.000239053	dWE(1).Potential/dt < 1E-06 V/s
16.0127	0.00651245	14.6	147	0.000391644
16.1127	0.0065033	14.7	148	-0.000396725	dWE(1).Potential/dt < 1E-06 V/s
16.2127	0.00649719	14.8	149	6.6113e-05
16.3127	0.00650635	14.9	150	0.000208539
16.4127	0.0065155	15	151	4.06957e-05
16.5127	0.00651245	15.1	152	-0.000132251	dWE(1).Potential/dt < 1E-06 V/s
16.6127	0.00652771	15.2	153	0.000345864
16.7127	0.00652161	15.3	154	-0.000300091	dWE(1).Potential/dt < 1E-06 V/s
16.8127	0.00653076	15.4	155	0.000289924
16.9127	0.00653992	15.5	156	4.06895e-05
17.0127	0.00653076	15.6	157	-0.000244148	dWE(1).Potential/dt < 1E-06 V/s
17.1127	0.00651245	15.7	158	-0.000198365	dWE(1).Potential/dt < 1E-06 V/s
17.2127	0.00654907	15.8	159	0.000854499
17.3127	0.00655823	15.9	160	-0.000320443	dWE(1).Potential/dt < 1E-06 V/s
17.4127	0.00652771	16	161	-0.000544231	dWE(1).Potential/dt < 1E-06 V/s
17.5127	0.00654907	16.1	162	0.000778204
17.6127	0.00654907	16.2	163	-0.00035095	dWE(1).Potential/dt < 1E-06 V/s
17.7127	0.00654297	16.3	164	-4.06957e-05	dWE(1).Potential/dt < 1E-06 V/s
17.8127	0.00654602	16.4	165	0.00012716
17.9127	0.00654602	16.5	166	-5.59507e-05	dWE(1).Potential/dt < 1E-06 V/s
18.0127	0.00654602	16.6	167	1.01731e-05
18.1127	0.00655823	16.7	168	0.000223791
18.2127	0.00658875	16.8	169	0.000417071
18.3127	0.00659485	16.9	170	-0.000203444	dWE(1).Potential/dt < 1E-06 V/s
18.4127	0.006604	17	171	0.000198356
18.5127	0.00662842	17.1	172	0.000361126
18.6127	0.00664978	17.2	173	0.00013733
18.7127	0.00660706	17.3	174	-0.000951132	dWE(1).Potential/dt < 1E-06 V/s
18.8127	0.00660706	17.4	175	0.00056966
18.9127	0.00663147	17.5	176	0.000305179
19.0127	0.00657043	17.6	177	-0.00140381	dWE(1).Potential/dt < 1E-06 V/s
19.1127	0.00658264	17.7	178	0.00101725
19.2127	0.00664673	17.8	179	0.000829074
19.3127	0.00665283	17.9	180	-0.000595104	dWE(1).Potential/dt < 1E-06 V/s
19.4127	0.00664368	18	181	-2.54298e-05	dWE(1).Potential/dt < 1E-06 V/s
19.5127	0.00664673	18.1	182	0.000183115
19.6127	0.00665283	18.2	183	4.57652e-05
19.7127	0.00666809	18.3	184	0.000218713
19.8127	0.0066803	18.4	185	6.61161e-05
19.9127	0.0066925	18.5	186	0.000132248
20.0127	0.00670471	18.6	187	0.000122059
20.1127	0.00671692	18.7	188	0.000122087
20.2127	0.00673828	18.8	189	0.000289913
20.3127	0.00672913	18.9	190	-0.000376389	dWE(1).Potential/dt < 1E-06 V/s
20.4127	0.00675964	19	191	0.000737511
20.5127	0.00677795	19.1	192	-5.0858e-05	dWE(1).Potential/dt < 1E-06 V/s
20.6127	0.00679016	19.2	193	0.000111895
20.7127	0.00679626	19.3	194	3.05163e-05
20.8127	0.00682068	19.4	195	0.00041708
20.9127	0.00683899	19.5	196	7.12089e-05
21.0127	0.00683594	19.6	197	-0.000188194	dWE(1).Potential/dt < 1E-06 V/s
21.1127	0.0068512	19.7	198	0.000376385
21.2127	0.00687256	19.8	199	0.000203447
21.3127	0.00686951	19.9	200	-0.000254301	dWE(1).Potential/dt < 1E-06 V/s
21.4127	0.0068634	20	201	-5.09744e-06	dWE(1).Potential/dt < 1E-06 V/s
21.5127	0.00688477	20.1	202	0.000452686
21.6127	0.00689087	20.2	203	-0.000157676	dWE(1).Potential/dt < 1E-06 V/s
21.7127	0.00688477	20.3	204	-0.000111898	dWE(1).Potential/dt < 1E-06 V/s
21.8127	0.00690308	20.4	205	0.000427244
21.9127	0.00691528	20.5	206	-1.01592e-05	dWE(1).Potential/dt < 1E-06 V/s
22.0127	0.00693054	20.6	207	0.000198362
22.1127	0.00692444	20.7	208	-0.000249233	dWE(1).Potential/dt < 1E-06 V/s
22.2127	0.0069397	20.8	209	0.000401813
22.3127	0.00695496	20.9	210	8.13758e-05
22.4127	0.00697327	21	211	0.000208551
22.5127	0.00700378	21.1	212	0.000396722
22.6127	0.0070343	21.2	213	0.000264486
22.7127	0.00704956	21.3	214	2.54313e-05
22.8127	0.00705872	21.4	215	9.15552e-05
22.9127	0.00707092	21.5	216	0.000167849
23.0127	0.00707092	21.6	217	-0.000111908	dWE(1).Potential/dt < 1E-06 V/s
23.1127	0.00708923	21.7	218	0.000376383
23.2127	0.00710754	21.8	219	0.000122073
23.3127	0.00713806	21.9	220	0.000406909
23.4127	0.00714722	22	221	-0.000127152	dWE(1).Potential/dt < 1E-06 V/s
23.5127	0.00717163	22.1	222	0.000442493
23.6127	0.00719604	22.2	223	0.000193284
23.7127	0.0072113	22.3	224	7.63017e-05
23.8127	0.00722046	22.4	225	7.12151e-05
23.9127	0.00722656	22.5	226	5.59337e-05
24.0127	0.00725098	22.6	227	0.000406918
24.1127	0.00726624	22.7	228	1.52457e-05
24.2127	0.00727539	22.8	229	7.11949e-05
24.3127	0.00731506	22.9	230	0.000671406
24.4127	0.00735474	23	231	0.00029499
24.5127	0.00737305	23.1	232	5.09433e-06
24.6127	0.00740051	23.2	233	0.000422145
24.7127	0.00743408	23.3	234	0.000356051
24.8127	0.00744934	23.4	235	-2.03556e-05	dWE(1).Potential/dt < 1E-06 V/s
24.9127	0.00748596	23.5	236	0.00060526
25.0127	0.00750427	23.6	237	-4.06833e-05	dWE(1).Potential/dt < 1E-06 V/s
25.1127	0.00753784	23.7	238	0.000523897
25.2127	0.00754395	23.8	239	-0.00021872	dWE(1).Potential/dt < 1E-06 V/s
25.3127	0.00758057	23.9	240	0.000712067
25.4127	0.00762634	24	241	0.000432345
25.5127	0.00763245	24.1	242	-0.000300077	dWE(1).Potential/dt < 1E-06 V/s
25.6127	0.00765076	24.2	243	0.000417049
25.7127	0.00768738	24.3	244	0.000478107
25.8127	0.00768738	24.4	245	-0.000366199	dWE(1).Potential/dt < 1E-06 V/s
25.9127	0.00772705	24.5	246	0.000849411
26.0127	0.00777283	24.6	247	0.000376369
26.1127	0.00779114	24.7	248	-6.61208e-05	dWE(1).Potential/dt < 1E-06 V/s
26.2127	0.0078186	24.8	249	0.000442522
26.3127	0.00786743	24.9	250	0.000635766
26.4127	0.00791016	25	251	0.000305193
26.5127	0.00794678	25.1	252	0.00033568
26.6127	0.00799866	25.2	253	0.000666324
26.7127	0.00804443	25.3	254	0.00035602
26.8127	0.00808411	25.4	255	0.000366199
26.9127	0.00811462	25.5	256	0.000249244
27.0127	0.00815125	25.6	257	0.000447603
27.1127	0.00819702	25.7	258	0.000513696
27.2127	0.00822449	25.8	259	9.15459e-05
27.3127	0.00825195	25.9	260	0.000335695
27.4127	0.00828247	26	261	0.000330616
27.5127	0.00830383	26.1	262	0.000127169
27.6127	0.0083374	26.2	263	0.000467924
27.7127	0.00837097	26.3	264	0.000294996
27.8127	0.00841675	26.4	265	0.000559486
27.9127	0.00844727	26.5	266	0.00013732
28.0127	0.00848999	26.6	267	0.000579847
28.1127	0.00853882	26.7	268	0.000498437
28.2127	0.00856323	26.8	269	2.03587e-05
28.3127	0.00860596	26.9	270	0.000661195
28.4127	0.00867004	27	271	0.000757867
28.5127	0.00870972	27.1	272	0.00012205
28.6127	0.00875244	27.2	273	0.00053407
28.7127	0.00878601	27.3	274	0.000249219
28.8127	0.00882568	27.4	275	0.000478132
28.9127	0.00886841	27.5	276	0.000432326
29.0127	0.00891418	27.6	277	0.000473016
29.1127	0.00897217	27.7	278	0.000671378
29.2127	0.00900879	27.8	279	0.000147518
29.3127	0.00903931	27.9	280	0.000325525
29.4127	0.00910339	28	281	0.000940946
29.5127	0.00914612	28.1	282	0.000137345
29.6127	0.00918579	28.2	283	0.000442496
29.7127	0.00924072	28.3	284	0.000686639
29.8127	0.00926514	28.4	285	-6.10265e-05	dWE(1).Potential/dt < 1E-06 V/s
29.9127	0.00931702	28.5	286	0.000849378
30.0127	0.00935669	28.6	287	0.000203469
30.1127	0.00940247	28.7	288	0.000549303
30.2127	0.00943909	28.8	289	0.000269556
30.3127	0.00947266	28.9	290	0.000340786
30.4127	0.00951538	29	291	0.000513714
30.5127	0.00956421	29.1	292	0.00050862
30.6127	0.00962219	29.2	293	0.000635786
30.7127	0.00968018	29.3	294	0.000549325
30.8127	0.00970764	29.4	295	2.03432e-05
30.9127	0.00975037	29.5	296	0.000656117
31.0127	0.00977783	29.6	297	9.66402e-05
31.1127	0.00982361	29.7	298	0.000661223
31.2127	0.00984497	29.8	299	-5.08502e-05	dWE(1).Potential/dt < 1E-06 V/s
31.3127	0.00988464	29.9	300	0.00063067
31.4127	0.00993958	30	301	0.000615471
31.5127	0.00998535	30.1	302	0.000330604
31.6127	0.0100189	30.2	303	0.000264474
31.7127	0.0100708	30.3	304	0.000712083
31.8127	0.0100861	30.4	305	-0.000213627	dWE(1).Potential/dt < 1E-06 V/s
31.9127	0.0101166	30.5	306	0.000554404
32.0127	0.0101501	30.6	307	0.000310267
32.1127	0.0101929	30.7	308	0.000493352
32.2127	0.0102234	30.8	309	0.00017294
32.3127	0.0102692	30.9	310	0.00062561
32.4127	0.0102905	31	311	-4.06802e-05	dWE(1).Potential/dt < 1E-06 V/s
32.5127	0.010318	31.1	312	0.000406901
32.6127	0.0103485	31.2	313	0.000310255
32.7127	0.010379	31.3	314	0.000294999
32.8127	0.0103851	31.4	315	-0.000142433	dWE(1).Potential/dt < 1E-06 V/s
32.9127	0.0104279	31.5	316	0.000813824
33.0127	0.0104523	31.6	317	-3.05256e-05	dWE(1).Potential/dt < 1E-06 V/s
33.1127	0.0104736	31.7	318	0.00024924
33.2127	0.0104858	31.8	319	5.59476e-05
33.3127	0.0105164	31.9	320	0.000488274
33.4127	0.0105377	32	321	7.62753e-05
33.5127	0.0105469	32.1	322	2.03618e-05
33.6127	0.010553	32.2	323	7.6266e-05
33.7127	0.0105927	32.3	324	0.000686664
33.8127	0.0105835	32.4	325	-0.000610379	dWE(1).Potential/dt < 1E-06 V/s
33.9127	0.0106201	32.5	326	0.000910455
34.0127	0.0106415	32.6	327	-6.61146e-05	dWE(1).Potential/dt < 1E-06 V/s
34.1127	0.0106598	32.7	328	0.000208523
34.2127	0.0106842	32.8	329	0.000305188
34.3127	0.0107056	32.9	330	0.000167818
34.4127	0.0107208	33	331	0.000111901
34.5127	0.0107574	33.1	332	0.000564577
34.6127	0.0107697	33.2	333	-0.000152594	dWE(1).Potential/dt < 1E-06 V/s
34.7127	0.0107941	33.3	334	0.000427272
34.8127	0.0107941	33.4	335	-0.000244143	dWE(1).Potential/dt < 1E-06 V/s
[...]
45.0127	0.010614	43.6	437	0.000289908
45.1127	0.0106201	43.7	438	-6.61177e-05	dWE(1).Potential/dt < 1E-06 V/s
45.2127	0.0106262	43.8	439	9.15614e-05
45.3127	0.0106262	43.9	440	-5.08564e-05	dWE(1).Potential/dt < 1E-06 V/s
45.4127	0.0106201	44	441	-9.15552e-05	dWE(1).Potential/dt < 1E-06 V/s
45.5127	0.0106232	44.1	442	0.000127163
45.6127	0.0106293	44.2	443	5.59228e-05
45.7127	0.0106415	44.3	444	0.000162783
45.8127	0.0106628	44.4	445	0.000269559
45.9127	0.0106598	44.5	446	-0.000264477	dWE(1).Potential/dt < 1E-06 V/s
46.0127	0.0106812	44.6	447	0.00049845
46.1127	0.0106781	44.7	448	-0.000315355	dWE(1).Potential/dt < 1E-06 V/s
46.2127	0.0106964	44.8	449	0.000442521
46.3127	0.0107025	44.9	450	-0.000111895	dWE(1).Potential/dt < 1E-06 V/s
46.4127	0.0106995	45	451	-6.61208e-05	dWE(1).Potential/dt < 1E-06 V/s
46.5127	0.0106995	45.1	452	5.59414e-05
46.6127	0.0107178	45.2	453	0.000325522
46.7127	0.0107147	45.3	454	-0.000269565	dWE(1).Potential/dt < 1E-06 V/s
46.8127	0.0107422	45.4	455	0.000600166
46.9127	0.0107452	45.5	456	-0.000274647	dWE(1).Potential/dt < 1E-06 V/s
47.0127	0.0107666	45.6	457	0.000447566
47.1127	0.0107666	45.7	458	-0.000239052	dWE(1).Potential/dt < 1E-06 V/s
47.2127	0.010791	45.8	459	0.000518806
47.3127	0.0107941	45.9	460	-0.000228888	dWE(1).Potential/dt < 1E-06 V/s
47.4127	0.0107971	46	461	0.000101719
47.5127	0.0108124	46.1	462	0.00025431
47.6127	0.0108063	46.2	463	-0.000279738	dWE(1).Potential/dt < 1E-06 V/s
47.7127	0.0108246	46.3	464	0.000457757
47.8127	0.0108307	46.4	465	-0.000122072	dWE(1).Potential/dt < 1E-06 V/s
47.9127	0.0108368	46.5	466	0.000101747
48.0127	0.0108643	46.6	467	0.000452654
48.1127	0.0108673	46.7	468	-0.000244128	dWE(1).Potential/dt < 1E-06 V/s
48.2127	0.0108643	46.8	469	-1.5522e-08	dWE(1).Potential/dt < 1E-06 V/s
48.3127	0.0108917	46.9	470	0.000549319
48.4127	0.0108826	47	471	-0.000498434	dWE(1).Potential/dt < 1E-06 V/s
48.5127	0.0108765	47.1	472	8.64391e-05
48.6127	0.0108826	47.2	473	0.000152616
48.7127	0.0108948	47.3	474	0.00013222
48.8127	0.010907	47.4	475	0.000101728
48.9127	0.0109131	47.5	476	1.01918e-05
49.0127	0.0109131	47.6	477	-3.0535e-05	dWE(1).Potential/dt < 1E-06 V/s
49.1127	0.0109131	47.7	478	2.03432e-05
49.2127	0.0109283	47.8	479	0.000279741
49.3127	0.0109253	47.9	480	-0.000233976	dWE(1).Potential/dt < 1E-06 V/s
49.4127	0.0109222	48	481	3.05194e-05
49.5127	0.0109222	48.1	482	2.54406e-05
49.6127	0.0109283	48.2	483	0.000101738
49.7127	0.0109406	48.3	484	0.000152566
49.8127	0.0109406	48.4	485	-0.000122062	dWE(1).Potential/dt < 1E-06 V/s
49.9127	0.0109314	48.5	486	-0.000127147	dWE(1).Potential/dt < 1E-06 V/s
50.0127	0.0109467	48.6	487	0.000386561
50.1127	0.0109619	48.7	488	7.12151e-05
50.2127	0.010968	48.8	489	-1.52675e-05	dWE(1).Potential/dt < 1E-06 V/s
50.3127	0.0109772	48.9	490	0.000147528
50.4127	0.0109711	49	491	-0.000198378	dWE(1).Potential/dt < 1E-06 V/s
50.5127	0.0109772	49.1	492	0.000213636
50.6127	0.0109833	49.2	493	2.03339e-05
50.7127	0.0109985	49.3	494	0.000228894
50.8127	0.0109955	49.4	495	-0.000213627	dWE(1).Potential/dt < 1E-06 V/s
50.9127	0.0109863	49.5	496	-8.13821e-05	dWE(1).Potential/dt < 1E-06 V/s
51.0127	0.0109955	49.6	497	0.000264474
51.1127	0.0110107	49.7	498	0.000142412
51.2127	0.0110199	49.8	499	2.03525e-05
51.3127	0.0110168	49.9	500	-0.000111914	dWE(1).Potential/dt < 1E-06 V/s
51.4127	0.011026	50	501	0.000233967
51.5127	0.0110229	50.1	502	-0.000172919	dWE(1).Potential/dt < 1E-06 V/s
51.6127	0.011026	50.2	503	0.000122053
51.7127	0.0110229	50.3	504	-0.000101707	dWE(1).Potential/dt < 1E-06 V/s
51.8127	0.0110352	50.4	505	0.000269568
51.9127	0.0110352	50.5	506	-0.000152594	dWE(1).Potential/dt < 1E-06 V/s
52.0127	0.0110535	50.6	507	0.000376385
52.1127	0.0110565	50.7	508	-0.000157682	dWE(1).Potential/dt < 1E-06 V/s
52.2127	0.0110474	50.8	509	-0.000142409	dWE(1).Potential/dt < 1E-06 V/s
52.3127	0.0110596	50.9	510	0.000340771
52.4127	0.0110687	51	511	-5.06018e-06	dWE(1).Potential/dt < 1E-06 V/s
52.5127	0.0110687	51.1	512	-6.61239e-05	dWE(1).Potential/dt < 1E-06 V/s
52.6127	0.0110718	51.2	513	8.64547e-05
52.7127	0.0110748	51.3	514	2.03463e-05
52.8127	0.0110687	51.4	515	-0.000137308	dWE(1).Potential/dt < 1E-06 V/s
52.9127	0.011084	51.5	516	0.000361123
53.0127	0.0110962	51.6	517	2.54344e-05
53.1127	0.0111023	51.7	518	2.03215e-05
53.2127	0.0111023	51.8	519	-3.05163e-05	dWE(1).Potential/dt < 1E-06 V/s
53.3127	0.0111115	51.9	520	0.000188199
53.4127	0.0110901	52	521	-0.000498475	dWE(1).Potential/dt < 1E-06 V/s
53.5127	0.0111115	52.1	522	0.000671415
53.6127	0.0111176	52.2	523	-0.00020857	dWE(1).Potential/dt < 1E-06 V/s
53.7127	0.0111176	52.3	524	3.10441e-09	dWE(1).Potential/dt < 1E-06 V/s
53.8127	0.0111359	52.4	525	0.000356035
53.9127	0.0111481	52.5	526	1.01762e-05
54.0127	0.0111572	52.6	527	8.64702e-05
54.1127	0.0111481	52.7	528	-0.000233995	dWE(1).Potential/dt < 1E-06 V/s
54.2127	0.0111664	52.8	529	0.000473031
54.3127	0.0111542	52.9	530	-0.000467924	dWE(1).Potential/dt < 1E-06 V/s
54.4127	0.0111572	53	531	0.000259398
54.5127	0.0111694	53.1	532	0.000147487
54.6127	0.0111664	53.2	533	-0.000188189	dWE(1).Potential/dt < 1E-06 V/s
54.7127	0.0111664	53.3	534	7.63032e-05
54.8127	0.0111755	53.4	535	0.000157691
54.9127	0.0111786	53.5	536	-5.08843e-05	dWE(1).Potential/dt < 1E-06 V/s
55.0127	0.0111786	53.6	537	-5.08812e-06	dWE(1).Potential/dt < 1E-06 V/s
55.1127	0.0111786	53.7	538	1.01638e-05
55.2127	0.0111877	53.8	539	0.000167855
55.3127	0.0111877	53.9	540	-0.000106823	dWE(1).Potential/dt < 1E-06 V/s
55.4127	0.0111847	54	541	-2.54375e-05	dWE(1).Potential/dt < 1E-06 V/s
55.5127	0.0111847	54.1	542	3.56107e-05
55.6127	0.0111938	54.2	543	0.000157664
55.7127	0.0111908	54.3	544	-0.000162745	dWE(1).Potential/dt < 1E-06 V/s
55.8127	0.0111877	54.4	545	1.017e-05
55.9127	0.0111847	54.5	546	-3.05287e-05	dWE(1).Potential/dt < 1E-06 V/s
56.0127	0.0111877	54.6	547	8.13914e-05
56.1127	0.0111877	54.7	548	-4.57869e-05	dWE(1).Potential/dt < 1E-06 V/s
56.2127	0.0112	54.8	549	0.000233961
56.3127	0.0112091	54.9	550	2.54282e-05
56.4127	0.0112061	55	551	-0.000122056	dWE(1).Potential/dt < 1E-06 V/s
56.5127	0.0112091	55.1	552	0.000122053
56.6127	0.0112274	55.2	553	0.000289921
56.7127	0.0111969	55.3	554	-0.000762933	dWE(1).Potential/dt < 1E-06 V/s
56.8127	0.0111816	55.4	555	0.000137333
56.9127	0.0111908	55.5	556	0.000244159
57.0127	0.0111877	55.6	557	-0.00021363	dWE(1).Potential/dt < 1E-06 V/s
57.1127	0.0111877	55.7	558	6.61146e-05
57.2127	0.0112061	55.8	559	0.000325522
57.3127	0.0112152	55.9	560	-4.57745e-05	dWE(1).Potential/dt < 1E-06 V/s
57.4127	0.0112122	56	561	-0.000101728	dWE(1).Potential/dt < 1E-06 V/s
57.5127	0.0112213	56.1	562	0.000233992
57.6127	0.011203	56.2	563	-0.000452685	dWE(1).Potential/dt < 1E-06 V/s
57.7127	0.011203	56.3	564	0.000244134
57.8127	0.0112152	56.4	565	0.000162752
57.9127	0.0112335	56.5	566	0.00019329
58.0127	0.0112427	56.6	567	-5.10675e-06	dWE(1).Potential/dt < 1E-06 V/s
58.1127	0.0112122	56.7	568	-0.000605248	dWE(1).Potential/dt < 1E-06 V/s
58.2127	0.0112244	56.8	569	0.000610348
58.3127	0.0112457	56.9	570	0.0001475
58.4127	0.0112457	57	571	-0.000208539	dWE(1).Potential/dt < 1E-06 V/s
58.5127	0.0112427	57.1	572	1.52551e-05
58.6127	0.0112457	57.2	573	9.15676e-05
58.7127	0.0112518	57.3	574	6.61239e-05
58.8127	0.0112549	57.4	575	-5.10054e-06	dWE(1).Potential/dt < 1E-06 V/s
58.9127	0.0112579	57.5	576	4.06926e-05
59.0127	0.0112579	57.6	577	-2.54251e-05	dWE(1).Potential/dt < 1E-06 V/s
59.1127	0.011261	57.7	578	6.61301e-05
59.2127	0.0112579	57.8	579	-9.15645e-05	dWE(1).Potential/dt < 1E-06 V/s
59.3127	0.0112579	57.9	580	4.57869e-05
59.4127	0.0112701	58	581	0.000213621
59.5127	0.0112732	58.1	582	-8.64733e-05	dWE(1).Potential/dt < 1E-06 V/s
59.6127	0.011264	58.2	583	-0.000162742	dWE(1).Potential/dt < 1E-06 V/s
59.7127	0.0112854	58.3	584	0.000508595
59.8127	0.0112732	58.4	585	-0.000503532	dWE(1).Potential/dt < 1E-06 V/s
59.9127	0.0112732	58.5	586	0.00021363
60.0127	0.0112823	58.6	587	0.000127175
60.1127	0.0112732	58.7	588	-0.000274675	dWE(1).Potential/dt < 1E-06 V/s
60.2127	0.0112793	58.8	589	0.00024925
60.3127	0.0112854	58.9	590	1.0139e-05
60.4127	0.0112762	59	591	-0.000218696	dWE(1).Potential/dt < 1E-06 V/s
60.5127	0.0112762	59.1	592	0.000127153
60.6127	0.0112701	59.2	593	-0.000142424	dWE(1).Potential/dt < 1E-06 V/s
60.7127	0.0112762	59.3	594	0.00018311
60.8127	0.0112671	59.4	595	-0.000259392	dWE(1).Potential/dt < 1E-06 V/s
60.9127	0.0112366	59.5	596	-0.000432326	dWE(1).Potential/dt < 1E-06 V/s
61.0127	0.0112061	59.6	597	-0.000233961	dWE(1).Potential/dt < 1E-06 V/s
61.1127	0.0111755	59.7	598	-0.000305169	dWE(1).Potential/dt < 1E-06 V/s
61.2127	0.0111328	59.8	599	-0.000528985	dWE(1).Potential/dt < 1E-06 V/s
61.3127	0.0111389	59.9	600	0.000508632