File: data/Z_measu_on_silk_fibroin/OCP_GNP1%_IV.txt
Time (s)	WE(1).Potential (V)	Corrected time (s)	Index	dWE(1).Potential/dt (V/s)	Cutoffs	OCP value (V)
1.50774	-0.0578918	0	1	0	dWE(1).Potential/dt < 1E-06 V/s	-0.0486064
1.60774	-0.0578308	0.1	2	0.000610352
1.70774	-0.0577698	0.2	3	0.000610352
1.80774	-0.0577087	0.3	4	0.000610352
1.90774	-0.0576782	0.4	5	5.08627e-05
2.00774	-0.0576172	0.5	6	0.000966391
2.10774	-0.0575867	0.6	7	-5.08627e-05	dWE(1).Potential/dt < 1E-06 V/s
2.20774	-0.0575256	0.7	8	0.000966391
2.30774	-0.0574646	0.8	9	0.000508627
2.40774	-0.0574036	0.9	10	0.000610352
2.50774	-0.057373	1	11	5.08627e-05
2.60774	-0.057312	1.1	12	0.000966391
2.70774	-0.057251	1.2	13	0.000508627
2.80774	-0.0572205	1.3	14	5.08627e-05
2.90774	-0.0571594	1.4	15	0.000966391
3.00774	-0.0571289	1.5	16	-5.08627e-05	dWE(1).Potential/dt < 1E-06 V/s
3.10774	-0.0570679	1.6	17	0.000966391
3.20774	-0.0570068	1.7	18	0.000508627
3.30774	-0.0569458	1.8	19	0.000610352
3.40774	-0.0568848	1.9	20	0.000610352
3.50774	-0.0568542	2	21	5.08627e-05
3.60774	-0.0567932	2.1	22	0.000966391
3.70774	-0.0567322	2.2	23	0.000508627
3.80774	-0.0567017	2.3	24	5.08627e-05
3.90774	-0.0566406	2.4	25	0.000966391
4.00774	-0.0565796	2.5	26	0.000508627
4.10774	-0.0565186	2.6	27	0.000610352
4.20774	-0.056488	2.7	28	5.08627e-05
4.30774	-0.056427	2.8	29	0.000966391
4.40774	-0.056366	2.9	30	0.000508627
4.50774	-0.0563049	3	31	0.000610352
4.60774	-0.0562744	3.1	32	5.08627e-05
4.70774	-0.0562134	3.2	33	0.000966391
4.80774	-0.0561523	3.3	34	0.000508627
4.90774	-0.0561218	3.4	35	5.08627e-05
5.00774	-0.0560608	3.5	36	0.000966391
5.10774	-0.0559998	3.6	37	0.000508627
5.20774	-0.0559692	3.7	38	5.08627e-05
5.30774	-0.0559082	3.8	39	0.000966391
5.40774	-0.0558777	3.9	40	-5.08627e-05	dWE(1).Potential/dt < 1E-06 V/s
5.50774	-0.0558167	4	41	0.000966391
5.60774	-0.0557556	4.1	42	0.000508627
5.70774	-0.0557251	4.2	43	5.08627e-05
5.80774	-0.0556641	4.3	44	0.000966391
5.90774	-0.055603	4.4	45	0.000508627
6.00774	-0.0555725	4.5	46	5.08627e-05
6.10774	-0.0555115	4.6	47	0.000966391
6.20774	-0.055481	4.7	48	-5.08627e-05	dWE(1).Potential/dt < 1E-06 V/s
6.30774	-0.0554199	4.8	49	0.000966391
6.40774	-0.0553894	4.9	50	-5.08627e-05	dWE(1).Potential/dt < 1E-06 V/s
6.50774	-0.0553284	5	51	0.000966391
6.60774	-0.0552673	5.1	52	0.000508627
6.70774	-0.0552368	5.2	53	5.08627e-05
6.80774	-0.0551758	5.3	54	0.000966391
6.90774	-0.0551453	5.4	55	-5.08627e-05	dWE(1).Potential/dt < 1E-06 V/s
7.00774	-0.0550842	5.5	56	0.000966391
7.10774	-0.0550537	5.6	57	-5.08627e-05	dWE(1).Potential/dt < 1E-06 V/s
7.20774	-0.0549927	5.7	58	0.000966391
7.30774	-0.0549622	5.8	59	-5.08627e-05	dWE(1).Potential/dt < 1E-06 V/s
7.40774	-0.0549011	5.9	60	0.000966391
7.50774	-0.0548401	6	61	0.000508627
7.60774	-0.0548096	6.1	62	5.08627e-05
7.70774	-0.0547485	6.2	63	0.000966391
7.80774	-0.054718	6.3	64	-5.08627e-05	dWE(1).Potential/dt < 1E-06 V/s
7.90774	-0.054657	6.4	65	0.000966391
8.00774	-0.0546265	6.5	66	-5.08627e-05	dWE(1).Potential/dt < 1E-06 V/s
8.10774	-0.0545654	6.6	67	0.000966391
8.20774	-0.0545349	6.7	68	-5.08627e-05	dWE(1).Potential/dt < 1E-06 V/s
8.30774	-0.0544739	6.8	69	0.000966391
8.40774	-0.0544434	6.9	70	-5.08627e-05	dWE(1).Potential/dt < 1E-06 V/s
8.50774	-0.0543823	7	71	0.000966391
8.60774	-0.0543518	7.1	72	-5.08627e-05	dWE(1).Potential/dt < 1E-06 V/s
8.70774	-0.0542908	7.2	73	0.000966391
8.80774	-0.0542603	7.3	74	-5.08627e-05	dWE(1).Potential/dt < 1E-06 V/s
8.90774	-0.0541992	7.4	75	0.000966391
9.00774	-0.0541687	7.5	76	-5.08627e-05	dWE(1).Potential/dt < 1E-06 V/s
9.10774	-0.0541077	7.6	77	0.000966391
9.20774	-0.0540771	7.7	78	-5.08627e-05	dWE(1).Potential/dt < 1E-06 V/s
9.30774	-0.0540161	7.8	79	0.000966391
9.40774	-0.0539551	7.9	80	0.000508627
9.50774	-0.0539246	8	81	5.08627e-05
9.60774	-0.053894	8.1	82	0.000406901
9.70774	-0.053833	8.2	83	0.000864666
9.80774	-0.0538025	8.3	84	-5.08627e-05	dWE(1).Potential/dt < 1E-06 V/s
9.90774	-0.0537415	8.4	85	0.000966391
10.0077	-0.0537109	8.5	86	-5.08627e-05	dWE(1).Potential/dt < 1E-06 V/s
10.1077	-0.0536804	8.6	87	0.000406901
10.2077	-0.0536194	8.7	88	0.000864666
10.3077	-0.0535889	8.8	89	-5.08627e-05	dWE(1).Potential/dt < 1E-06 V/s
10.4077	-0.0535278	8.9	90	0.000966391
10.5077	-0.0534973	9	91	-5.08627e-05	dWE(1).Potential/dt < 1E-06 V/s
10.6077	-0.0534363	9.1	92	0.000966391
10.7077	-0.0534058	9.2	93	-5.08627e-05	dWE(1).Potential/dt < 1E-06 V/s
10.8077	-0.0533447	9.3	94	0.000966391
10.9077	-0.0533142	9.4	95	-5.08627e-05	dWE(1).Potential/dt < 1E-06 V/s
11.0077	-0.0532837	9.5	96	0.000406901
11.1077	-0.0532227	9.6	97	0.000864666
11.2077	-0.0531921	9.7	98	-5.08627e-05	dWE(1).Potential/dt < 1E-06 V/s
11.3077	-0.0531311	9.8	99	0.000966391
11.4077	-0.0531006	9.9	100	-5.08627e-05	dWE(1).Potential/dt < 1E-06 V/s
11.5077	-0.0530396	10	101	0.000966391
11.6077	-0.053009	10.1	102	-5.08627e-05	dWE(1).Potential/dt < 1E-06 V/s
11.7077	-0.0529785	10.2	103	0.000406901
11.8077	-0.0529175	10.3	104	0.000864666
11.9077	-0.052887	10.4	105	-5.08627e-05	dWE(1).Potential/dt < 1E-06 V/s
12.0077	-0.0528259	10.5	106	0.000966391
12.1077	-0.0527954	10.6	107	-5.08627e-05	dWE(1).Potential/dt < 1E-06 V/s
12.2077	-0.0527649	10.7	108	0.000406901
12.3077	-0.0527039	10.8	109	0.000864666
12.4077	-0.0526733	10.9	110	-5.08627e-05	dWE(1).Potential/dt < 1E-06 V/s
12.5077	-0.0526123	11	111	0.000966391
12.6077	-0.0525818	11.1	112	-5.08627e-05	dWE(1).Potential/dt < 1E-06 V/s
12.7077	-0.0525513	11.2	113	0.000406901
12.8077	-0.0525208	11.3	114	0.000305176
12.9077	-0.0524597	11.4	115	0.000864666
13.0077	-0.0524292	11.5	116	-5.08627e-05	dWE(1).Potential/dt < 1E-06 V/s
13.1077	-0.0523987	11.6	117	0.000406901
13.2077	-0.0523682	11.7	118	0.000305176
13.3077	-0.0523376	11.8	119	0.000305176
13.4077	-0.0523071	11.9	120	0.000305176
13.5077	-0.0522461	12	121	0.000864666
13.6077	-0.0522156	12.1	122	-5.08627e-05	dWE(1).Potential/dt < 1E-06 V/s
13.7077	-0.0521851	12.2	123	0.000406901
13.8077	-0.0521545	12.3	124	0.000305176
13.9077	-0.052124	12.4	125	0.000305176
14.0077	-0.0520935	12.5	126	0.000305176
14.1077	-0.052063	12.6	127	0.000305176
14.2077	-0.0520325	12.7	128	0.000305176
14.3077	-0.052002	12.8	129	0.000305176
14.4077	-0.0519714	12.9	130	0.000305176
14.5077	-0.0519409	13	131	0.000305176
14.6077	-0.0518799	13.1	132	0.000864666
14.7077	-0.0518799	13.2	133	-0.000610352	dWE(1).Potential/dt < 1E-06 V/s
14.8077	-0.0518188	13.3	134	0.00132243
14.9077	-0.0517883	13.4	135	-0.000152588	dWE(1).Potential/dt < 1E-06 V/s
15.0077	-0.0517578	13.5	136	0.000406901
15.1077	-0.0517273	13.6	137	0.000305176
15.2077	-0.0516968	13.7	138	0.000305176
15.3077	-0.0516357	13.8	139	0.000864666
15.4077	-0.0516052	13.9	140	-5.08627e-05	dWE(1).Potential/dt < 1E-06 V/s
15.5077	-0.0515747	14	141	0.000406901
15.6077	-0.0515442	14.1	142	0.000305176
15.7077	-0.0515137	14.2	143	0.000305176
15.8077	-0.0514832	14.3	144	0.000305176
15.9077	-0.0514526	14.4	145	0.000305176
16.0077	-0.0514221	14.5	146	0.000305176
16.1077	-0.0513916	14.6	147	0.000305176
16.2077	-0.0513306	14.7	148	0.000864666
16.3077	-0.0513	14.8	149	-5.08627e-05	dWE(1).Potential/dt < 1E-06 V/s
16.4077	-0.0512695	14.9	150	0.000406901
16.5077	-0.051239	15	151	0.000305176
16.6077	-0.0512085	15.1	152	0.000305176
16.7077	-0.051178	15.2	153	0.000305176
16.8077	-0.0511475	15.3	154	0.000305176
16.9077	-0.0511169	15.4	155	0.000305176
17.0077	-0.0510864	15.5	156	0.000305176
17.1077	-0.0510559	15.6	157	0.000305176
17.2077	-0.0510254	15.7	158	0.000305176
17.3077	-0.0509949	15.8	159	0.000305176
17.4077	-0.0509644	15.9	160	0.000305176
17.5077	-0.0509338	16	161	0.000305176
17.6077	-0.0509033	16.1	162	0.000305176
17.7077	-0.0508728	16.2	163	0.000305176
17.8077	-0.0508118	16.3	164	0.000864666
17.9077	-0.0508118	16.4	165	-0.000610352	dWE(1).Potential/dt < 1E-06 V/s
18.0077	-0.05078125	16.5	166	0.00076294
18.1077	-0.0507507	16.6	167	0.000203451
18.2077	-0.0507202	16.7	168	0.000305176
18.3077	-0.0506897	16.8	169	0.000305176
18.4077	-0.0506592	16.9	170	0.000305176
18.5077	-0.0505981	17	171	0.000864666
18.6077	-0.0505676	17.1	172	-5.08627e-05	dWE(1).Potential/dt < 1E-06 V/s
18.7077	-0.0505371	17.2	173	0.000406901
18.8077	-0.0505066	17.3	174	0.000305176
18.9077	-0.0504761	17.4	175	0.000305176
19.0077	-0.0504456	17.5	176	0.000305176
19.1077	-0.050415	17.6	177	0.000305176
19.2077	-0.0503845	17.7	178	0.000305176
19.3077	-0.0503845	17.8	179	-0.000254313	dWE(1).Potential/dt < 1E-06 V/s
19.4077	-0.0503845	17.9	180	0.000101725
19.5077	-0.050293	18	181	0.00167847
19.6077	-0.0502014	18.1	182	0.000610352
19.7077	-0.0501709	18.2	183	-0.000203451	dWE(1).Potential/dt < 1E-06 V/s
19.8077	-0.0501099	18.3	184	0.00106812
19.9077	-0.0500488	18.4	185	0.000508627
20.0077	-0.0500488	18.5	186	-0.000508627	dWE(1).Potential/dt < 1E-06 V/s
20.1077	-0.0500183	18.6	187	0.00076294
20.2077	-0.0499878	18.7	188	0.000203451
20.3077	-0.0499573	18.8	189	0.000305176
20.4077	-0.0499573	18.9	190	-0.000254313	dWE(1).Potential/dt < 1E-06 V/s
20.5077	-0.0499268	19	191	0.000661215
20.6077	-0.0499268	19.1	192	-0.000356039	dWE(1).Potential/dt < 1E-06 V/s
20.7077	-0.0499268	19.2	193	0.000101725
20.8077	-0.0498962	19.3	194	0.000559489
20.9077	-0.0498962	19.4	195	-0.000356039	dWE(1).Potential/dt < 1E-06 V/s
21.0077	-0.0498657	19.5	196	0.000661215
21.1077	-0.0498657	19.6	197	-0.000356039	dWE(1).Potential/dt < 1E-06 V/s
21.2077	-0.0498352	19.7	198	0.000661215
21.3077	-0.0498352	19.8	199	-0.000356039	dWE(1).Potential/dt < 1E-06 V/s
21.4077	-0.0498047	19.9	200	0.000661215
21.5077	-0.0498047	20	201	-0.000356039	dWE(1).Potential/dt < 1E-06 V/s
21.6077	-0.0497437	20.1	202	0.0012207
21.7077	-0.0497437	20.2	203	-0.000712077	dWE(1).Potential/dt < 1E-06 V/s
21.8077	-0.0497131	20.3	204	0.00076294
21.9077	-0.0496826	20.4	205	0.000203451
22.0077	-0.0496521	20.5	206	0.000305176
22.1077	-0.0496521	20.6	207	-0.000254313	dWE(1).Potential/dt < 1E-06 V/s
22.2077	-0.0496216	20.7	208	0.000661215
22.3077	-0.0495911	20.8	209	0.000203451
22.4077	-0.0495605	20.9	210	0.000305176
22.5077	-0.0495605	21	211	-0.000254313	dWE(1).Potential/dt < 1E-06 V/s
22.6077	-0.0494995	21.1	212	0.0012207
22.7077	-0.049469	21.2	213	-0.000152588	dWE(1).Potential/dt < 1E-06 V/s
22.8077	-0.0494385	21.3	214	0.000406901
22.9077	-0.0494385	21.4	215	-0.000254313	dWE(1).Potential/dt < 1E-06 V/s
23.0077	-0.049408	21.5	216	0.000661215
23.1077	-0.0493774	21.6	217	0.000203451
23.2077	-0.0493469	21.7	218	0.000305176
23.3077	-0.0493469	21.8	219	-0.000254313	dWE(1).Potential/dt < 1E-06 V/s
23.4077	-0.0493469	21.9	220	0.000101725
23.5077	-0.0493164	22	221	0.000559489
23.6077	-0.0492859	22.1	222	0.000203451
23.7077	-0.0492859	22.2	223	-0.000254313	dWE(1).Potential/dt < 1E-06 V/s
23.8077	-0.0492554	22.3	224	0.000661215
23.9077	-0.0492554	22.4	225	-0.000356039	dWE(1).Potential/dt < 1E-06 V/s
24.0077	-0.0492249	22.5	226	0.000661215
24.1077	-0.0492249	22.6	227	-0.000356039	dWE(1).Potential/dt < 1E-06 V/s
24.2077	-0.0491943	22.7	228	0.000661215
24.3077	-0.0491638	22.8	229	0.000203451
24.4077	-0.0491638	22.9	230	-0.000254313	dWE(1).Potential/dt < 1E-06 V/s
24.5077	-0.0491333	23	231	0.000661215
24.6077	-0.0491028	23.1	232	0.000203451
24.7077	-0.0490723	23.2	233	0.000305176
24.8077	-0.0490417	23.3	234	0.000305176
24.9077	-0.0490417	23.4	235	-0.000254313	dWE(1).Potential/dt < 1E-06 V/s
25.0077	-0.0490112	23.5	236	0.000661215
25.1077	-0.0490112	23.6	237	-0.000356039	dWE(1).Potential/dt < 1E-06 V/s
25.2077	-0.0489807	23.7	238	0.000661215
25.3077	-0.0489502	23.8	239	0.000203451
25.4077	-0.0489197	23.9	240	0.000305176
25.5077	-0.0488892	24	241	0.000305176
25.6077	-0.0488892	24.1	242	-0.000254313	dWE(1).Potential/dt < 1E-06 V/s
25.7077	-0.0488892	24.2	243	0.000101725
25.8077	-0.0488586	24.3	244	0.000559489
25.9077	-0.0488281	24.4	245	0.000203451
26.0077	-0.0488281	24.5	246	-0.000254313	dWE(1).Potential/dt < 1E-06 V/s
26.1077	-0.0487976	24.6	247	0.000661215
26.2077	-0.0487976	24.7	248	-0.000356039	dWE(1).Potential/dt < 1E-06 V/s
26.3077	-0.0487976	24.8	249	0.000101725
26.4077	-0.0487671	24.9	250	0.000559489
26.5077	-0.0487366	25	251	0.000203451
26.6077	-0.0487366	25.1	252	-0.000254313	dWE(1).Potential/dt < 1E-06 V/s
26.7077	-0.0487061	25.2	253	0.000661215
26.8077	-0.0487061	25.3	254	-0.000356039	dWE(1).Potential/dt < 1E-06 V/s
26.9077	-0.0487061	25.4	255	0.000101725
27.0077	-0.0486755	25.5	256	0.000559489
27.1077	-0.0486755	25.6	257	-0.000356039	dWE(1).Potential/dt < 1E-06 V/s
27.2077	-0.048645	25.7	258	0.000661215
27.3077	-0.048645	25.8	259	-0.000356039	dWE(1).Potential/dt < 1E-06 V/s
27.4077	-0.048645	25.9	260	0.000101725
27.5077	-0.048645	26	261	0	dWE(1).Potential/dt < 1E-06 V/s
27.6077	-0.0486145	26.1	262	0.000559489
27.7077	-0.0486145	26.2	263	-0.000356039	dWE(1).Potential/dt < 1E-06 V/s
27.8077	-0.0486145	26.3	264	0.000101725
27.9077	-0.048584	26.4	265	0.000559489
28.0077	-0.048584	26.5	266	-0.000356039	dWE(1).Potential/dt < 1E-06 V/s
28.1077	-0.0485535	26.6	267	0.000661215
28.2077	-0.0485535	26.7	268	-0.000356039	dWE(1).Potential/dt < 1E-06 V/s
28.3077	-0.0485535	26.8	269	0.000101725
28.4077	-0.0485535	26.9	270	0	dWE(1).Potential/dt < 1E-06 V/s
28.5077	-0.0485229	27	271	0.000559489
28.6077	-0.0485229	27.1	272	-0.000356039	dWE(1).Potential/dt < 1E-06 V/s
28.7077	-0.0485229	27.2	273	0.000101725
28.8077	-0.0485229	27.3	274	0	dWE(1).Potential/dt < 1E-06 V/s
28.9077	-0.0484924	27.4	275	0.000559489
29.0077	-0.0484924	27.5	276	-0.000356039	dWE(1).Potential/dt < 1E-06 V/s
29.1077	-0.0484924	27.6	277	0.000101725
29.2077	-0.0484924	27.7	278	0	dWE(1).Potential/dt < 1E-06 V/s
29.3077	-0.0484924	27.8	279	0	dWE(1).Potential/dt < 1E-06 V/s
29.4077	-0.0484924	27.9	280	0	dWE(1).Potential/dt < 1E-06 V/s
29.5077	-0.0484924	28	281	0	dWE(1).Potential/dt < 1E-06 V/s
29.6077	-0.0484619	28.1	282	0.000559489
29.7077	-0.0484924	28.2	283	-0.000915528	dWE(1).Potential/dt < 1E-06 V/s
29.8077	-0.0484924	28.3	284	0.000457764
29.9077	-0.0484924	28.4	285	-0.000101725	dWE(1).Potential/dt < 1E-06 V/s
30.0077	-0.0484924	28.5	286	0	dWE(1).Potential/dt < 1E-06 V/s
30.1077	-0.0484924	28.6	287	0	dWE(1).Potential/dt < 1E-06 V/s
30.2077	-0.0484924	28.7	288	0	dWE(1).Potential/dt < 1E-06 V/s
30.3077	-0.0484924	28.8	289	0	dWE(1).Potential/dt < 1E-06 V/s , dWE(1).Potential/dt > -1E-06 V/s
30.4077	-0.0484924	28.9	290	0	dWE(1).Potential/dt < 1E-06 V/s , dWE(1).Potential/dt > -1E-06 V/s
30.5077	-0.0484924	29	291	0	dWE(1).Potential/dt < 1E-06 V/s , dWE(1).Potential/dt > -1E-06 V/s
30.6077	-0.0484924	29.1	292	0	dWE(1).Potential/dt < 1E-06 V/s , dWE(1).Potential/dt > -1E-06 V/s
30.7077	-0.0484924	29.2	293	0	dWE(1).Potential/dt < 1E-06 V/s , dWE(1).Potential/dt > -1E-06 V/s