File: data/Z_measu_on_silk_fibroin/OCP_GNP0.1%_SF1.txt
Time (s)	WE(1).Potential (V)	Corrected time (s)	Index	dWE(1).Potential/dt (V/s)	Cutoffs	OCP value (V)
1.52776	0.00517883	0	1	0	dWE(1).Potential/dt < 1E-06 V/s	0.0127262
1.62776	0.00511475	0.1	2	-0.000640867	dWE(1).Potential/dt < 1E-06 V/s
1.72776	0.005078125	0.2	3	-0.000228889	dWE(1).Potential/dt < 1E-06 V/s
1.82776	0.00508423	0.3	4	0.00032553
1.92776	0.00505371	0.4	5	-0.000752767	dWE(1).Potential/dt < 1E-06 V/s
2.02776	0.00502625	0.5	6	-0.00012716	dWE(1).Potential/dt < 1E-06 V/s
2.12776	0.00499878	0.6	7	-0.00028482	dWE(1).Potential/dt < 1E-06 V/s
2.22776	0.00496826	0.7	8	-0.000330617	dWE(1).Potential/dt < 1E-06 V/s
2.32776	0.0049408	0.8	9	-0.000239063	dWE(1).Potential/dt < 1E-06 V/s
2.42776	0.00493469	0.9	10	0.000106815
2.52776	0.00492554	1	11	-0.000188191	dWE(1).Potential/dt < 1E-06 V/s
2.62776	0.00491638	1.1	12	-8.13759e-05	dWE(1).Potential/dt < 1E-06 V/s
2.72776	0.00489502	1.2	13	-0.000315357	dWE(1).Potential/dt < 1E-06 V/s
2.82776	0.00487366	1.3	14	-0.000172931	dWE(1).Potential/dt < 1E-06 V/s
2.92776	0.0048645	1.4	15	1.01732e-05
3.02776	0.00484009	1.5	16	-0.000411983	dWE(1).Potential/dt < 1E-06 V/s
3.12776	0.00486145	1.6	17	0.000645955
3.22776	0.00483093	1.7	18	-0.0008901	dWE(1).Potential/dt < 1E-06 V/s
3.32776	0.00485229	1.8	19	0.000818885
3.42776	0.00483704	1.9	20	-0.000630694	dWE(1).Potential/dt < 1E-06 V/s
3.52776	0.00482178	2	21	-3.05179e-05	dWE(1).Potential/dt < 1E-06 V/s
3.62776	0.00481873	2.1	22	7.12028e-05
3.72776	0.00479736	2.2	23	-0.000406901	dWE(1).Potential/dt < 1E-06 V/s
3.82776	0.004776	2.3	24	-0.000152582	dWE(1).Potential/dt < 1E-06 V/s
3.92776	0.00465393	2.4	25	-0.00205994	dWE(1).Potential/dt < 1E-06 V/s
4.02776	0.00462952	2.5	26	0.000905354
4.12776	0.00465698	2.6	27	0.000381483
4.22776	0.00471191	2.7	28	0.000605255
4.32776	0.0047699	2.8	29	0.00051372
4.42776	0.00480042	2.9	30	6.61147e-05
4.52776	0.00483093	3	31	0.000396728
4.62776	0.0048645	3.1	32	0.000361116
4.72776	0.00487671	3.2	33	-6.61131e-05	dWE(1).Potential/dt < 1E-06 V/s
4.82776	0.00489502	3.3	34	0.000305162
4.92776	0.00492859	3.4	35	0.000442512
5.02776	0.00489502	3.5	36	-0.000946052	dWE(1).Potential/dt < 1E-06 V/s
5.12776	0.00490112	3.6	37	0.000615446
5.22776	0.00495911	3.7	38	0.000879921
5.32776	0.00502319	3.8	39	0.000518806
5.42776	0.00516663	3.9	40	0.0020752
5.52776	0.00527954	4	41	0.000610346
5.62776	0.00535583	4.1	42	0.000559493
5.72776	0.00530396	4.2	43	-0.00146484	dWE(1).Potential/dt < 1E-06 V/s
5.82776	0.00508728	4.3	44	-0.00311281	dWE(1).Potential/dt < 1E-06 V/s
5.92776	0.00517883	4.4	45	0.00403342
6.02776	0.00567627	4.5	46	0.00732932
6.12776	0.00551453	4.6	47	-0.00846356	dWE(1).Potential/dt < 1E-06 V/s
6.22776	0.00535889	4.7	48	0.000691745
6.32776	0.00542603	4.8	49	0.00250753
6.42776	0.00557861	4.9	50	0.00149536
6.52776	0.00424805	5	51	-0.0259501	dWE(1).Potential/dt < 1E-06 V/s
6.62776	0.00499268	5.1	52	0.0296835
6.72776	0.00538635	5.2	53	-0.00590516	dWE(1).Potential/dt < 1E-06 V/s
6.82776	0.00535278	5.3	54	-0.00272624	dWE(1).Potential/dt < 1E-06 V/s
6.92776	0.00540161	5.4	55	0.00259908
7.02776	0.00547485	5.5	56	0.000661209
7.12776	0.00553589	5.6	57	0.000427245
7.22776	0.00558777	5.7	58	0.000483202
7.32776	0.00566406	5.8	59	0.00099691
7.42776	0.00571899	5.9	60	0.000289912
7.52776	0.00577087	6	61	0.000564584
7.62776	0.00579529	6.1	62	2.5422e-05
7.72776	0.00585632	6.2	63	0.00100708
7.82776	0.00595398	6.3	64	0.00115967
7.92776	0.00599976	6.4	65	-9.66372e-05	dWE(1).Potential/dt < 1E-06 V/s
8.02776	0.00604248	6.5	66	0.000574748
8.12776	0.00611267	6.6	67	0.000940963
8.22776	0.00617676	6.7	68	0.000498441
8.32776	0.00622864	6.8	69	0.00043743
8.42776	0.00629883	6.9	70	0.000895174
8.52776	0.00636292	7	71	0.000528976
8.62776	0.00642395	7.1	72	0.000605264
8.72776	0.00649414	7.2	73	0.000788375
8.82776	0.00656433	7.3	74	0.000671385
8.92776	0.00665588	7.4	75	0.00109355
9.02776	0.00670166	7.5	76	5.08968e-06
9.12776	0.0067627	7.6	77	0.0008901
9.22776	0.00681152	7.7	78	0.000335689
9.32776	0.00689087	7.8	79	0.00108847
9.42776	0.00697327	7.9	80	0.00074767
9.52776	0.00703735	8	81	0.000478118
9.62776	0.00713501	8.1	82	0.00131733
9.72776	0.00720825	8.2	83	0.000417084
9.82776	0.00729065	8.3	84	0.000981637
9.92776	0.0073761	8.4	85	0.000849421
10.0278	0.0074585	8.5	86	0.000788354
10.1278	0.00754089	8.6	87	0.000834171
10.2278	0.00761719	8.7	88	0.00071206
10.3278	0.00771179	8.8	89	0.00111897
10.4278	0.00777588	8.9	90	0.000325525
10.5278	0.00786133	9	91	0.00113425
10.6278	0.00793457	9.1	92	0.000559472
10.7278	0.00801697	9.2	93	0.000940977
10.8278	0.00809326	9.3	94	0.000681564
10.9278	0.0081665	9.4	95	0.000727339
11.0278	0.00823975	9.5	96	0.000742581
11.1278	0.00829773	9.6	97	0.000452679
11.2278	0.00836487	9.7	98	0.000798563
11.3278	0.00844116	9.8	99	0.000808699
11.4278	0.00852051	9.9	100	0.000788375
11.5278	0.00857544	10	101	0.000335696
11.6278	0.00862427	10.1	102	0.000518806
11.7278	0.0086853	10.2	103	0.000732411
11.8278	0.00875549	10.3	104	0.000737496
11.9278	0.00881348	10.4	105	0.000447603
12.0278	0.00887146	10.5	106	0.000620532
12.1278	0.00891418	10.6	107	0.000300088
12.2278	0.00896912	10.7	108	0.000701889
12.3278	0.00901489	10.8	109	0.000340796
12.4278	0.00905151	10.9	110	0.000320447
12.5278	0.00909729	11	111	0.000564559
12.6278	0.00915833	11.1	112	0.000706989
12.7278	0.0092041	11.2	113	0.000279742
12.8278	0.00924377	11.3	114	0.000396716
12.9278	0.00925903	11.4	115	-3.05008e-05	dWE(1).Potential/dt < 1E-06 V/s
13.0278	0.0092926	11.5	116	0.000569669
13.1278	0.00933533	11.6	117	0.000442494
13.2278	0.00937805	11.7	118	0.000396734
13.3278	0.00939941	11.8	119	3.56014e-05
13.4278	0.00942993	11.9	120	0.000452676
13.5278	0.0094574	12	121	0.000218706
13.6278	0.0094574	12.1	122	-0.0002187	dWE(1).Potential/dt < 1E-06 V/s
13.7278	0.00953369	12.2	123	0.00149028
13.8278	0.00954895	12.3	124	-0.000610349	dWE(1).Potential/dt < 1E-06 V/s
13.9278	0.00957642	12.4	125	0.000579833
14.0278	0.00958557	12.5	126	-0.000101722	dWE(1).Potential/dt < 1E-06 V/s
14.1278	0.00960999	12.6	127	0.000432311
14.2278	0.00962219	12.7	128	-3.05039e-05	dWE(1).Potential/dt < 1E-06 V/s
14.3278	0.00965271	12.8	129	0.000498441
14.4278	0.00968933	12.9	130	0.000356042
14.5278	0.00969849	13	131	-0.000157685	dWE(1).Potential/dt < 1E-06 V/s
14.6278	0.00970764	13.1	132	0.000183117
14.7278	0.00973816	13.2	133	0.000483183
14.8278	0.00973816	13.3	134	-0.000325522	dWE(1).Potential/dt < 1E-06 V/s
14.9278	0.009765625	13.4	135	0.000605258
15.0278	0.00978394	13.5	136	1.52706e-05
15.1278	0.00978088	13.6	137	-0.000178035	dWE(1).Potential/dt < 1E-06 V/s
15.2278	0.00978699	13.7	138	0.000208554
15.3278	0.0098053	13.8	139	0.000254298
15.4278	0.0098053	13.9	140	-0.000193281	dWE(1).Potential/dt < 1E-06 V/s
15.5278	0.00979614	14	141	-0.00010681	dWE(1).Potential/dt < 1E-06 V/s
15.6278	0.0098114	14.1	142	0.000386555
15.7278	0.00983887	14.2	143	0.000295
15.8278	0.00984497	14.3	144	-0.000157654	dWE(1).Potential/dt < 1E-06 V/s
15.9278	0.00983276	14.4	145	-0.000203463	dWE(1).Potential/dt < 1E-06 V/s
16.0278	0.00983887	14.5	146	0.000274657
16.1278	0.00985413	14.6	147	0.000167859
16.2278	0.00986328	14.7	148	1.01887e-05
16.3278	0.00986328	14.8	149	-5.59508e-05	dWE(1).Potential/dt < 1E-06 V/s
16.4278	0.00985107	14.9	150	-0.00019329	dWE(1).Potential/dt < 1E-06 V/s
16.5278	0.00984802	15	151	8.64827e-05
16.6278	0.00983887	15.1	152	-0.000172947	dWE(1).Potential/dt < 1E-06 V/s
16.7278	0.00984497	15.2	153	0.000208561
16.8278	0.00984192	15.3	154	-0.000157698	dWE(1).Potential/dt < 1E-06 V/s
16.9278	0.00984497	15.4	155	0.000111911
17.0278	0.00984497	15.5	156	-4.5787e-05	dWE(1).Potential/dt < 1E-06 V/s
17.1278	0.00984497	15.6	157	1.01701e-05
17.2278	0.00986328	15.7	158	0.000335696
17.3278	0.00986023	15.8	159	-0.000269565	dWE(1).Potential/dt < 1E-06 V/s
17.4278	0.00985718	15.9	160	4.06771e-05
17.5278	0.00986633	16	161	0.000193274
17.6278	0.00986328	16.1	162	-0.000172919	dWE(1).Potential/dt < 1E-06 V/s
17.7278	0.00986328	16.2	163	6.6124e-05
17.8278	0.00985107	16.3	164	-0.00023398	dWE(1).Potential/dt < 1E-06 V/s
17.9278	0.00985413	16.4	165	0.000198366
18.0278	0.00986328	16.5	166	9.15739e-05
18.1278	0.00986938	16.6	167	1.52427e-05
18.2278	0.00986023	16.7	168	-0.000208514	dWE(1).Potential/dt < 1E-06 V/s
18.3278	0.00985413	16.8	169	1.52302e-05
18.4278	0.00984497	16.9	170	-0.000127129	dWE(1).Potential/dt < 1E-06 V/s
18.5278	0.00986023	17	171	0.000366193
18.6278	0.00985413	17.1	172	-0.000320447	dWE(1).Potential/dt < 1E-06 V/s
18.7278	0.00983887	17.2	173	-0.000157658	dWE(1).Potential/dt < 1E-06 V/s
18.8278	0.0098175	17.3	174	-0.000233952	dWE(1).Potential/dt < 1E-06 V/s
18.9278	0.00981445	17.4	175	0.000142409
19.0278	0.00978088	17.5	176	-0.000651054	dWE(1).Potential/dt < 1E-06 V/s
19.1278	0.00976868	17.6	177	0.000157685
19.2278	0.00977478	17.7	178	0.00014239
19.3278	0.00975952	17.8	179	-0.00039164	dWE(1).Potential/dt < 1E-06 V/s
19.4278	0.00974426	17.9	180	-8.13884e-05	dWE(1).Potential/dt < 1E-06 V/s
19.5278	0.00975037	18	181	0.000239058
19.6278	0.00975647	18.1	182	-1.01638e-05	dWE(1).Potential/dt < 1E-06 V/s
19.7278	0.00977478	18.2	183	0.000284817
19.8278	0.00979309	18.3	184	0.000142418
19.9278	0.00976868	18.4	185	-0.000600163	dWE(1).Potential/dt < 1E-06 V/s
20.0278	0.00975647	18.5	186	0.000122059
20.1278	0.00974731	18.6	187	-0.000106813	dWE(1).Potential/dt < 1E-06 V/s
20.2278	0.00974426	18.7	188	1.01794e-05
20.3278	0.00974121	18.8	189	-5.08565e-05	dWE(1).Potential/dt < 1E-06 V/s
20.4278	0.00973511	18.9	190	-8.64734e-05	dWE(1).Potential/dt < 1E-06 V/s
20.5278	0.0097229	19	191	-0.000162752	dWE(1).Potential/dt < 1E-06 V/s
20.6278	0.00971985	19.1	192	6.61053e-05
20.7278	0.0097168	19.2	193	-6.10327e-05	dWE(1).Potential/dt < 1E-06 V/s
20.8278	0.00971985	19.3	194	8.13946e-05
20.9278	0.00973511	19.4	195	0.000233961
21.0278	0.0097168	19.5	196	-0.000503545	dWE(1).Potential/dt < 1E-06 V/s
21.1278	0.00970459	19.6	197	4.0705e-05
21.2278	0.00969543	19.7	198	-8.64641e-05	dWE(1).Potential/dt < 1E-06 V/s
21.3278	0.00967712	19.8	199	-0.000269572	dWE(1).Potential/dt < 1E-06 V/s
21.4278	0.00967102	19.9	200	7.11904e-05
21.5278	0.00965881	20	201	-0.000213602	dWE(1).Potential/dt < 1E-06 V/s
21.6278	0.00964355	20.1	202	-0.000157682	dWE(1).Potential/dt < 1E-06 V/s
21.7278	0.0096405	20.2	203	8.13759e-05
21.8278	0.0096344	20.3	204	-0.000127132	dWE(1).Potential/dt < 1E-06 V/s
21.9278	0.00965576	20.4	205	0.00045266
22.0278	0.00962524	20.5	206	-0.000829049	dWE(1).Potential/dt < 1E-06 V/s
22.1278	0.00963745	20.6	207	0.000651039
22.2278	0.00962524	20.7	208	-0.000467943	dWE(1).Potential/dt < 1E-06 V/s
22.3278	0.00962219	20.8	209	0.00012716
22.4278	0.00960083	20.9	210	-0.000396725	dWE(1).Potential/dt < 1E-06 V/s
22.5278	0.00961609	21	211	0.000518788
22.6278	0.00961304	21.1	212	-0.000305182	dWE(1).Potential/dt < 1E-06 V/s
22.7278	0.00960388	21.2	213	-8.13635e-05	dWE(1).Potential/dt < 1E-06 V/s
22.8278	0.00958252	21.3	214	-0.000295009	dWE(1).Potential/dt < 1E-06 V/s
22.9278	0.00957336	21.4	215	5.08751e-05
23.0278	0.00956726	21.5	216	-7.63002e-05	dWE(1).Potential/dt < 1E-06 V/s
23.1278	0.0095459	21.6	217	-0.00035096	dWE(1).Potential/dt < 1E-06 V/s
23.2278	0.00953369	21.7	218	5.08503e-06
23.3278	0.00953369	21.8	219	7.12152e-05
23.4278	0.00952454	21.9	220	-0.000208523	dWE(1).Potential/dt < 1E-06 V/s
23.5278	0.00951233	22	221	-0.000116996	dWE(1).Potential/dt < 1E-06 V/s
23.6278	0.00949707	22.1	222	-0.000167834	dWE(1).Potential/dt < 1E-06 V/s
23.7278	0.00950012	22.2	223	0.000193265
23.8278	0.0094696	22.3	224	-0.00064596	dWE(1).Potential/dt < 1E-06 V/s
23.9278	0.0094574	22.4	225	0.000142412
24.0278	0.00944519	22.5	226	-0.000183092	dWE(1).Potential/dt < 1E-06 V/s
24.1278	0.00942383	22.6	227	-0.000289933	dWE(1).Potential/dt < 1E-06 V/s
24.2278	0.00940552	22.7	228	-0.000127141	dWE(1).Potential/dt < 1E-06 V/s
24.3278	0.00939331	22.8	229	-8.13977e-05	dWE(1).Potential/dt < 1E-06 V/s
24.4278	0.009375	22.9	230	-0.000254295	dWE(1).Potential/dt < 1E-06 V/s
24.5278	0.00935974	23	231	-0.00010681	dWE(1).Potential/dt < 1E-06 V/s
24.6278	0.00933838	23.1	232	-0.00027466	dWE(1).Potential/dt < 1E-06 V/s
24.7278	0.00932312	23.2	233	-8.1379e-05	dWE(1).Potential/dt < 1E-06 V/s
24.8278	0.00930786	23.3	234	-0.000172934	dWE(1).Potential/dt < 1E-06 V/s
24.9278	0.00930176	23.4	235	1.52489e-05
25.0278	0.00927429	23.5	236	-0.000483195	dWE(1).Potential/dt < 1E-06 V/s
25.1278	0.00925293	23.6	237	-9.15305e-05	dWE(1).Potential/dt < 1E-06 V/s
25.2278	0.00926514	23.7	238	0.000381464
25.3278	0.00924683	23.8	239	-0.000549329	dWE(1).Potential/dt < 1E-06 V/s
25.4278	0.00922546	23.9	240	-0.000137333	dWE(1).Potential/dt < 1E-06 V/s
25.5278	0.00921326	24	241	-3.56045e-05	dWE(1).Potential/dt < 1E-06 V/s
25.6278	0.00922241	24.1	242	0.000239077
25.7278	0.00921021	24.2	243	-0.000371319	dWE(1).Potential/dt < 1E-06 V/s
25.8278	0.00921021	24.3	244	0.000172931
25.9278	0.00921631	24.4	245	7.1209e-05
26.0278	0.00918884	24.5	246	-0.000574745	dWE(1).Potential/dt < 1E-06 V/s
26.1278	0.00915527	24.6	247	-0.000274672	dWE(1).Potential/dt < 1E-06 V/s
26.2278	0.00910645	24.7	248	-0.000595091	dWE(1).Potential/dt < 1E-06 V/s
26.3278	0.00911255	24.8	249	0.000569681
26.4278	0.00909119	24.9	250	-0.000625638	dWE(1).Potential/dt < 1E-06 V/s
26.5278	0.00909424	25	251	0.000325544
26.6278	0.00906677	25.1	252	-0.000610355	dWE(1).Potential/dt < 1E-06 V/s
26.7278	0.00906982	25.2	253	0.000386552
26.8278	0.00903625	25.3	254	-0.000742588	dWE(1).Potential/dt < 1E-06 V/s
26.9278	0.00900574	25.4	255	-0.000157682	dWE(1).Potential/dt < 1E-06 V/s
27.0278	0.00898743	25.5	256	-9.15615e-05	dWE(1).Potential/dt < 1E-06 V/s
27.1278	0.00896301	25.6	257	-0.000335677	dWE(1).Potential/dt < 1E-06 V/s
27.2278	0.00894165	25.7	258	-0.000167852	dWE(1).Potential/dt < 1E-06 V/s
27.3278	0.00894775	25.8	259	0.000279757
27.4278	0.00892639	25.9	260	-0.000534064	dWE(1).Potential/dt < 1E-06 V/s
27.5278	0.00890808	26	261	-6.6124e-05	dWE(1).Potential/dt < 1E-06 V/s
27.6278	0.00888672	26.1	262	-0.000249204	dWE(1).Potential/dt < 1E-06 V/s
27.7278	0.00890808	26.2	263	0.000579817
27.8278	0.00888367	26.3	264	-0.000768003	dWE(1).Potential/dt < 1E-06 V/s
27.9278	0.00883789	26.4	265	-0.000483214	dWE(1).Potential/dt < 1E-06 V/s
28.0278	0.00880432	26.5	266	-0.000162767	dWE(1).Potential/dt < 1E-06 V/s
28.1278	0.00878601	26.6	267	-9.66372e-05	dWE(1).Potential/dt < 1E-06 V/s
28.2278	0.0087677	26.7	268	-0.000233964	dWE(1).Potential/dt < 1E-06 V/s
28.3278	0.00873718	26.8	269	-0.000406914	dWE(1).Potential/dt < 1E-06 V/s
28.4278	0.00870056	26.9	270	-0.000376376	dWE(1).Potential/dt < 1E-06 V/s
28.5278	0.0086853	27	271	4.57652e-05
28.6278	0.00865173	27.1	272	-0.000559496	dWE(1).Potential/dt < 1E-06 V/s
28.7278	0.00861816	27.2	273	-0.000274657	dWE(1).Potential/dt < 1E-06 V/s
28.8278	0.00857849	27.3	274	-0.000447572	dWE(1).Potential/dt < 1E-06 V/s
28.9278	0.00854492	27.4	275	-0.000264508	dWE(1).Potential/dt < 1E-06 V/s
29.0278	0.00852051	27.5	276	-0.000188174	dWE(1).Potential/dt < 1E-06 V/s
29.1278	0.00845642	27.6	277	-0.001002	dWE(1).Potential/dt < 1E-06 V/s
29.2278	0.00841064	27.7	278	-0.000172941	dWE(1).Potential/dt < 1E-06 V/s
29.3278	0.00837402	27.8	279	-0.000350966	dWE(1).Potential/dt < 1E-06 V/s
29.4278	0.00834351	27.9	280	-0.000284814	dWE(1).Potential/dt < 1E-06 V/s
29.5278	0.00830994	28	281	-0.000381473	dWE(1).Potential/dt < 1E-06 V/s
29.6278	0.00828247	28.1	282	-0.00021363	dWE(1).Potential/dt < 1E-06 V/s
29.7278	0.0082489	28.2	283	-0.000406898	dWE(1).Potential/dt < 1E-06 V/s
29.8278	0.00823059	28.3	284	-3.55952e-05	dWE(1).Potential/dt < 1E-06 V/s
29.9278	0.0081604	28.4	285	-0.00118511	dWE(1).Potential/dt < 1E-06 V/s
30.0278	0.00810547	28.5	286	-0.000249204	dWE(1).Potential/dt < 1E-06 V/s
30.1278	0.00809631	28.6	287	0.000239021
30.2278	0.00808411	28.7	288	-0.000300082	dWE(1).Potential/dt < 1E-06 V/s
30.3278	0.00802612	28.8	289	-0.00095112	dWE(1).Potential/dt < 1E-06 V/s
30.4278	0.0079834	28.9	290	-0.000147503	dWE(1).Potential/dt < 1E-06 V/s
30.5278	0.00795288	29	291	-0.000254323	dWE(1).Potential/dt < 1E-06 V/s
30.6278	0.00791931	29.1	292	-0.000401823	dWE(1).Potential/dt < 1E-06 V/s
30.7278	0.00788574	29.2	293	-0.000325519	dWE(1).Potential/dt < 1E-06 V/s
30.8278	0.00785828	29.3	294	-0.000223782	dWE(1).Potential/dt < 1E-06 V/s
30.9278	0.00782166	29.4	295	-0.000462868	dWE(1).Potential/dt < 1E-06 V/s
31.0278	0.00778809	29.5	296	-0.000279742	dWE(1).Potential/dt < 1E-06 V/s
31.1278	0.00776062	29.6	297	-0.000233973	dWE(1).Potential/dt < 1E-06 V/s
31.2278	0.00772095	29.7	298	-0.000518791	dWE(1).Potential/dt < 1E-06 V/s
31.3278	0.00769043	29.8	299	-0.000188194	dWE(1).Potential/dt < 1E-06 V/s
31.4278	0.00765686	29.9	300	-0.000391648	dWE(1).Potential/dt < 1E-06 V/s
31.5278	0.00762634	30	301	-0.000269562	dWE(1).Potential/dt < 1E-06 V/s
31.6278	0.00759277	30.1	302	-0.000371288	dWE(1).Potential/dt < 1E-06 V/s
31.7278	0.00757141	30.2	303	-0.000101722	dWE(1).Potential/dt < 1E-06 V/s
31.8278	0.00753174	30.3	304	-0.000590021	dWE(1).Potential/dt < 1E-06 V/s
31.9278	0.00750122	30.4	305	-0.000167832	dWE(1).Potential/dt < 1E-06 V/s
32.0278	0.00747681	30.5	306	-0.000223794	dWE(1).Potential/dt < 1E-06 V/s
32.1278	0.0074646	30.6	307	-4.0688e-05	dWE(1).Potential/dt < 1E-06 V/s
32.2278	0.00741882	30.7	308	-0.000778209	dWE(1).Potential/dt < 1E-06 V/s
32.3278	0.00739746	30.8	309	0.000101713
32.4278	0.00736084	30.9	310	-0.000574729	dWE(1).Potential/dt < 1E-06 V/s
32.5278	0.00732727	31	311	-0.000259408	dWE(1).Potential/dt < 1E-06 V/s
32.6278	0.00730591	31.1	312	-0.000122087	dWE(1).Potential/dt < 1E-06 V/s
[...]
42.4278	0.00696411	40.9	410	0.000132239
42.5278	0.00696411	41	411	-5.08704e-05	dWE(1).Potential/dt < 1E-06 V/s
42.6278	0.00697327	41.1	412	0.000188189
42.7278	0.00698853	41.2	413	0.000172936
42.8278	0.00701294	41.3	414	0.000300093
42.9278	0.00702209	41.4	415	-6.61115e-05	dWE(1).Potential/dt < 1E-06 V/s
43.0278	0.00703125	41.5	416	0.000142393
43.1278	0.00705261	41.6	417	0.000315376
43.2278	0.00708008	41.7	418	0.000284808
43.3278	0.00709229	41.8	419	-2.54282e-05	dWE(1).Potential/dt < 1E-06 V/s
43.4278	0.0071106	41.9	420	0.000284845
43.5278	0.00714111	42	421	0.000386549
43.6278	0.00717468	42.1	422	0.00032044
43.7278	0.00722656	42.2	423	0.000661202
43.8278	0.00727234	42.3	424	0.000345881
43.9278	0.00724792	42.4	425	-0.000808715	dWE(1).Potential/dt < 1E-06 V/s
44.0278	0.00723877	42.5	426	0.000269567
44.1278	0.00726624	42.6	427	0.000528972
44.2278	0.00727234	42.7	428	-0.000239065	dWE(1).Potential/dt < 1E-06 V/s
44.3278	0.00730286	42.8	429	0.00057985
44.4278	0.00731201	42.9	430	-0.00016784	dWE(1).Potential/dt < 1E-06 V/s
44.5278	0.00734253	43	431	0.00055439
44.6278	0.00737	43.1	432	0.000178012
44.7278	0.00735168	43.2	433	-0.000554401	dWE(1).Potential/dt < 1E-06 V/s
44.8278	0.00744019	43.3	434	0.00192771
44.9278	0.00749512	43.4	435	-8.64641e-05	dWE(1).Potential/dt < 1E-06 V/s
45.0278	0.00752869	43.5	436	0.000269553
45.1278	0.007547	43.6	437	0.000127161
45.2278	0.00755615	43.7	438	6.61333e-05
45.3278	0.00758362	43.8	439	0.000457747
45.4278	0.00760803	43.9	440	0.000157684
45.5278	0.00764465	44	441	0.000478114
45.6278	0.00768738	44.1	442	0.000437412
45.7278	0.00773621	44.2	443	0.000518814
45.8278	0.00777588	44.3	444	0.000300085
45.9278	0.00780945	44.4	445	0.000315349
46.0278	0.00784302	44.5	446	0.000356051
46.1278	0.00789795	44.6	447	0.000727319
46.2278	0.00793762	44.7	448	0.000198375
46.3278	0.00800171	44.8	449	0.000895176
46.4278	0.00804138	44.9	450	0.000111902
46.5278	0.00808411	45	451	0.000534055
46.6278	0.00812683	45.1	452	0.000417078
46.7278	0.00817566	45.2	453	0.000539137
46.8278	0.00821228	45.3	454	0.000244159
46.9278	0.00826416	45.4	455	0.000686615
47.0278	0.00832214	45.5	456	0.000579858
47.1278	0.00836487	45.6	457	0.000279742
47.2278	0.00841064	45.7	458	0.000534052
47.3278	0.00846863	45.8	459	0.000671379
47.4278	0.00851746	45.9	460	0.000371309
47.5278	0.00857544	46	461	0.000686631
47.6278	0.00862732	46.1	462	0.000437436
47.7278	0.00868225	46.2	463	0.000595088
47.8278	0.00872498	46.3	464	0.000315346
47.9278	0.00878601	46.4	465	0.000803639
48.0278	0.0088501	46.5	466	0.000605273
48.1278	0.00891724	46.6	467	0.000686649
48.2278	0.00898743	46.7	468	0.000717159
48.3278	0.00905151	46.8	469	0.000579842
48.4278	0.00910339	46.9	470	0.000437393
48.5278	0.00916748	47	471	0.000783293
48.6278	0.00923462	47.1	472	0.000656145
48.7278	0.00930481	47.2	473	0.000717138
48.8278	0.00937805	47.3	474	0.000747694
48.9278	0.00944824	47.4	475	0.000666303
49.0278	0.00950317	47.5	476	0.000432311
49.1278	0.00957947	47.6	477	0.000991841
49.2278	0.00965881	47.7	478	0.000747688
49.3278	0.0097229	47.8	479	0.000503539
49.4278	0.009765625	47.9	480	0.000300076
49.5278	0.00985107	48	481	0.00128174
49.6278	0.00991211	48.1	482	0.00026448
49.7278	0.0098053	48.2	483	-0.00238547	dWE(1).Potential/dt < 1E-06 V/s
49.8278	0.0100128	48.3	484	0.00525412
49.9278	0.010083	48.4	485	-0.0014903	dWE(1).Potential/dt < 1E-06 V/s
50.0278	0.0101654	48.5	486	0.00138349
50.1278	0.0102325	48.6	487	0.000503508
50.2278	0.010318	48.7	488	0.00105796
50.3278	0.0103638	48.8	489	6.61084e-05
50.4278	0.0104279	48.9	490	0.000925704
50.5278	0.0105011	49	491	0.000747688
50.6278	0.0105835	49.1	492	0.000869729
50.7278	0.0106476	49.2	493	0.00045777
50.8278	0.0106995	49.3	494	0.000478126
50.9278	0.0107697	49.4	495	0.000895157
51.0278	0.0108368	49.5	496	0.000584949
51.1278	0.0109039	49.6	497	0.000681527
51.2278	0.0109619	49.7	498	0.000503563
51.3278	0.0110077	49.8	499	0.000386558
51.4278	0.0110596	49.9	500	0.000610346
51.5278	0.0111145	50	501	0.000554429
51.6278	0.0111755	50.1	502	0.000651039
51.7278	0.0112122	50.2	503	0.000142409
51.8278	0.0112671	50.3	504	0.000783311
51.9278	0.0113251	50.4	505	0.000544222
52.0278	0.0113647	50.5	506	0.000233952
52.1278	0.0114075	50.6	507	0.000513724
52.2278	0.0114655	50.7	508	0.000696826
52.3278	0.0114838	50.8	509	-0.000198381	dWE(1).Potential/dt < 1E-06 V/s
52.4278	0.0114929	50.9	510	0.000147515
52.5278	0.0115631	51	511	0.00124103
52.6278	0.0116608	51.1	512	0.00100202
52.7278	0.011676	51.2	513	-0.000625629	dWE(1).Potential/dt < 1E-06 V/s
52.8278	0.0116974	51.3	514	0.000539128
52.9278	0.01171875	51.4	515	0.00019329
53.0278	0.0117767	51.5	516	0.000885003
53.1278	0.0118195	51.6	517	0.000178026
53.2278	0.0118683	51.7	518	0.00059
53.3278	0.011911	51.8	519	0.000356042
53.4278	0.0119354	51.9	520	0.000111902
53.5278	0.011969	52	521	0.000473016
53.6278	0.0119995	52.1	522	0.000249241
53.7278	0.0120422	52.2	523	0.000539146
53.8278	0.0120697	52.3	524	0.000106798
53.9278	0.0120972	52.4	525	0.000325522
54.0278	0.0121216	52.5	526	0.000218734
54.1278	0.0121368	52.6	527	8.64641e-05
54.2278	0.0121674	52.7	528	0.000462858
54.3278	0.0121948	52.8	529	0.000198366
54.4278	0.0122223	52.9	530	0.000284817
54.5278	0.0122498	53	531	0.00027466
54.6278	0.0122681	53.1	532	0.000106826
54.7278	0.0122955	53.2	533	0.000381458
54.8278	0.0123199	53.3	534	0.000188217
54.9278	0.0123352	53.4	535	8.64641e-05
55.0278	0.0123535	53.5	536	0.000239043
55.1278	0.0123657	53.6	537	6.10514e-05
55.2278	0.0123932	53.7	538	0.000422157
55.3278	0.0124146	53.8	539	0.000111877
55.4278	0.0124268	53.9	540	6.61426e-05
55.5278	0.0124359	54	541	9.6631e-05
55.6278	0.0124481	54.1	542	0.000157673
55.7278	0.0124756	54.2	543	0.000391646
55.8278	0.0124847	54.3	544	-0.000111895	dWE(1).Potential/dt < 1E-06 V/s
55.9278	0.0125031	54.4	545	0.000320428
56.0278	0.0125275	54.5	546	0.00026449
56.1278	0.0125275	54.6	547	-0.000223794	dWE(1).Potential/dt < 1E-06 V/s
56.2278	0.0125427	54.7	548	0.000361124
56.3278	0.012558	54.8	549	0.000101725
56.4278	0.0125671	54.9	550	4.06802e-05
56.5278	0.0125671	55	551	-5.59539e-05	dWE(1).Potential/dt < 1E-06 V/s
56.6278	0.0125854	55.1	552	0.000366209
56.7278	0.0125885	55.2	553	-0.000157661	dWE(1).Potential/dt < 1E-06 V/s
56.8278	0.0125916	55.3	554	8.1379e-05
56.9278	0.0126129	55.4	555	0.000366187
57.0278	0.0126251	55.5	556	-1.52365e-05	dWE(1).Potential/dt < 1E-06 V/s
57.1278	0.0126465	55.6	557	0.000320422
57.2278	0.0126587	55.7	558	1.52675e-05
57.3278	0.0126556	55.8	559	-0.00012715	dWE(1).Potential/dt < 1E-06 V/s
57.4278	0.012674	55.9	560	0.000411971
57.5278	0.0126801	56	561	-0.000111889	dWE(1).Potential/dt < 1E-06 V/s
57.6278	0.0126892	56.1	562	0.000157661
57.7278	0.0127014	56.2	563	0.000137345
57.8278	0.0126892	56.3	564	-0.000335711	dWE(1).Potential/dt < 1E-06 V/s
57.9278	0.0126953	56.4	565	0.000295012
58.0278	0.0127045	56.5	566	5.59353e-05
58.1278	0.0127014	56.6	567	-0.000142399	dWE(1).Potential/dt < 1E-06 V/s
58.2278	0.0127228	56.7	568	0.000457752
58.3278	0.012735	56.8	569	-3.55952e-05	dWE(1).Potential/dt < 1E-06 V/s
58.4278	0.0127289	56.9	570	-0.000183104	dWE(1).Potential/dt < 1E-06 V/s
58.5278	0.0127502	57	571	0.000503514
58.6278	0.0127502	57.1	572	-0.000269568	dWE(1).Potential/dt < 1E-06 V/s
58.7278	0.0127472	57.2	573	1.52706e-05
58.8278	0.0128021	57.3	574	0.00104268
58.9278	0.0128021	57.4	575	-0.000651039	dWE(1).Potential/dt < 1E-06 V/s
59.0278	0.0128418	57.5	576	0.000910431
59.1278	0.0128632	57.6	577	-7.12028e-05	dWE(1).Potential/dt < 1E-06 V/s
59.2278	0.0127716	57.7	578	-0.00179545	dWE(1).Potential/dt < 1E-06 V/s
59.3278	0.0127625	57.8	579	0.000971488
59.4278	0.0127594	57.9	580	-0.000254313	dWE(1).Potential/dt < 1E-06 V/s
59.5278	0.0127625	58	581	6.10327e-05
59.6278	0.0127686	58.1	582	6.61178e-05
59.7278	0.0127655	58.2	583	-0.000116977	dWE(1).Potential/dt < 1E-06 V/s
59.8278	0.0127686	58.3	584	0.000111889
59.9278	0.0127716	58.4	585	1.01856e-05
60.0278	0.0127747	58.5	586	3.05164e-05
60.1278	0.0127838	58.6	587	0.000142396
60.2278	0.0127777	58.7	588	-0.000208505	dWE(1).Potential/dt < 1E-06 V/s
60.3278	0.0127747	58.8	589	4.57683e-05
60.4278	0.0127716	58.9	590	-4.07019e-05	dWE(1).Potential/dt < 1E-06 V/s
60.5278	0.0127747	59	591	8.13915e-05
60.6278	0.0127777	59.1	592	1.01669e-05
60.7278	0.0127808	59.2	593	3.05102e-05
60.8278	0.0127716	59.3	594	-0.000193271	dWE(1).Potential/dt < 1E-06 V/s
60.9278	0.0127747	59.4	595	0.000172934
61.0278	0.0127747	59.5	596	-6.61302e-05	dWE(1).Potential/dt < 1E-06 V/s
61.1278	0.0127808	59.6	597	0.000122053
61.2278	0.0127655	59.7	598	-0.000350951	dWE(1).Potential/dt < 1E-06 V/s
61.3278	0.0127747	59.8	599	0.000366218
61.4278	0.0127808	59.9	600	-4.58025e-05	dWE(1).Potential/dt < 1E-06 V/s