File: data/Z_measu_on_silk_fibroin/OCP_GNP0.1%_IV.txt
Time (s)	WE(1).Potential (V)	Corrected time (s)	Index	dWE(1).Potential/dt (V/s)	Cutoffs	OCP value (V)
1.42121	0.0456482	0	1	0	dWE(1).Potential/dt < 1E-06 V/s	0.0418918
1.52121	0.0456268	0.1	2	-0.000213646	dWE(1).Potential/dt < 1E-06 V/s
1.62121	0.0456146	0.2	3	-7.63313e-05	dWE(1).Potential/dt < 1E-06 V/s
1.72121	0.0456024	0.3	4	-0.000152563	dWE(1).Potential/dt < 1E-06 V/s
1.82121	0.0455933	0.4	5	-6.61488e-05	dWE(1).Potential/dt < 1E-06 V/s
1.92121	0.0455841	0.5	6	-0.00010175	dWE(1).Potential/dt < 1E-06 V/s
2.02121	0.0455719	0.6	7	-0.000147447	dWE(1).Potential/dt < 1E-06 V/s
2.12121	0.0455566	0.7	8	-0.000167837	dWE(1).Potential/dt < 1E-06 V/s
2.22121	0.0455353	0.8	9	-0.000254338	dWE(1).Potential/dt < 1E-06 V/s
2.32121	0.045517	0.9	10	-0.000137265	dWE(1).Potential/dt < 1E-06 V/s
2.42121	0.0454956	1	11	-0.000249222	dWE(1).Potential/dt < 1E-06 V/s
2.52121	0.0454803	1.1	12	-9.15305e-05	dWE(1).Potential/dt < 1E-06 V/s
2.62121	0.0454651	1.2	13	-0.000172903	dWE(1).Potential/dt < 1E-06 V/s
2.72121	0.0454437	1.3	14	-0.000264521	dWE(1).Potential/dt < 1E-06 V/s
2.82121	0.0454254	1.4	15	-0.000137265	dWE(1).Potential/dt < 1E-06 V/s
2.92121	0.0454071	1.5	16	-0.000193293	dWE(1).Potential/dt < 1E-06 V/s
3.02121	0.0453949	1.6	17	-7.12649e-05	dWE(1).Potential/dt < 1E-06 V/s
3.12121	0.0453796	1.7	18	-0.000198335	dWE(1).Potential/dt < 1E-06 V/s
3.22121	0.0453583	1.8	19	-0.000254276	dWE(1).Potential/dt < 1E-06 V/s
3.32121	0.04534	1.9	20	-0.000137389	dWE(1).Potential/dt < 1E-06 V/s
3.42121	0.0453186	2	21	-0.000249197	dWE(1).Potential/dt < 1E-06 V/s
3.52121	0.0452972	2.1	22	-0.000203426	dWE(1).Potential/dt < 1E-06 V/s
3.62121	0.0452759	2.2	23	-0.000213658	dWE(1).Potential/dt < 1E-06 V/s
3.72121	0.0452576	2.3	24	-0.000157605	dWE(1).Potential/dt < 1E-06 V/s
3.82121	0.0452362	2.4	25	-0.000249222	dWE(1).Potential/dt < 1E-06 V/s
3.92121	0.0452179	2.5	26	-0.000147559	dWE(1).Potential/dt < 1E-06 V/s
4.02121	0.0452057	2.6	27	-8.13107e-05	dWE(1).Potential/dt < 1E-06 V/s
4.12121	0.0451904	2.7	28	-0.000198359	dWE(1).Potential/dt < 1E-06 V/s
4.22121	0.0451752	2.8	29	-0.000142381	dWE(1).Potential/dt < 1E-06 V/s
4.32121	0.0451538	2.9	30	-0.000264521	dWE(1).Potential/dt < 1E-06 V/s
4.42121	0.0451385	3	31	-8.13356e-05	dWE(1).Potential/dt < 1E-06 V/s
4.52121	0.0451202	3.1	32	-0.000228857	dWE(1).Potential/dt < 1E-06 V/s
4.62121	0.045108	3.2	33	-6.10824e-05	dWE(1).Potential/dt < 1E-06 V/s
4.72121	0.0450989	3.3	34	-8.63647e-05	dWE(1).Potential/dt < 1E-06 V/s
4.82121	0.0450806	3.4	35	-0.000269662	dWE(1).Potential/dt < 1E-06 V/s
4.92121	0.0450623	3.5	36	-0.000152576	dWE(1).Potential/dt < 1E-06 V/s
5.02121	0.0450409	3.6	37	-0.00023899	dWE(1).Potential/dt < 1E-06 V/s
5.12121	0.0450195	3.7	38	-0.000203575	dWE(1).Potential/dt < 1E-06 V/s
5.22121	0.0450104	3.8	39	1.02446e-05
5.32121	0.0449921	3.9	40	-0.000300122	dWE(1).Potential/dt < 1E-06 V/s
5.42121	0.0449738	4	41	-0.000152613	dWE(1).Potential/dt < 1E-06 V/s
5.52121	0.0449615	4.1	42	-7.11407e-05	dWE(1).Potential/dt < 1E-06 V/s
5.62121	0.0449463	4.2	43	-0.000198359	dWE(1).Potential/dt < 1E-06 V/s
5.72121	0.0449249	4.3	44	-0.000254338	dWE(1).Potential/dt < 1E-06 V/s
5.82121	0.0449036	4.4	45	-0.000193194	dWE(1).Potential/dt < 1E-06 V/s
5.92121	0.0448792	4.5	46	-0.000269686	dWE(1).Potential/dt < 1E-06 V/s
6.02121	0.0448547	4.6	47	-0.000233837	dWE(1).Potential/dt < 1E-06 V/s
6.12121	0.0448364	4.7	48	-0.000132335	dWE(1).Potential/dt < 1E-06 V/s
6.22121	0.0448212	4.8	49	-0.000147509	dWE(1).Potential/dt < 1E-06 V/s
6.32121	0.0447998	4.9	50	-0.000274653	dWE(1).Potential/dt < 1E-06 V/s
6.42121	0.0447845	5	51	-8.13853e-05	dWE(1).Potential/dt < 1E-06 V/s
6.52121	0.0447662	5.1	52	-0.000228857	dWE(1).Potential/dt < 1E-06 V/s
6.62121	0.0447479	5.2	53	-0.000172953	dWE(1).Potential/dt < 1E-06 V/s
6.72121	0.0447357	5.3	54	-7.1178e-05	dWE(1).Potential/dt < 1E-06 V/s
6.82121	0.0447205	5.4	55	-0.000198397	dWE(1).Potential/dt < 1E-06 V/s
6.92121	0.0447021	5.5	56	-0.000198359	dWE(1).Potential/dt < 1E-06 V/s
7.02121	0.0446899	5.6	57	-6.10079e-05	dWE(1).Potential/dt < 1E-06 V/s
7.12121	0.0446686	5.7	58	-0.000310354	dWE(1).Potential/dt < 1E-06 V/s
7.22121	0.0446533	5.8	59	-7.12028e-05	dWE(1).Potential/dt < 1E-06 V/s
7.32121	0.044632	5.9	60	-0.000284824	dWE(1).Potential/dt < 1E-06 V/s
7.42121	0.0446167	6	61	-8.13853e-05	dWE(1).Potential/dt < 1E-06 V/s
7.52121	0.0446014	6.1	62	-0.000172928	dWE(1).Potential/dt < 1E-06 V/s
7.62121	0.0445801	6.2	63	-0.000264446	dWE(1).Potential/dt < 1E-06 V/s
7.72121	0.0445648	6.3	64	-8.13604e-05	dWE(1).Potential/dt < 1E-06 V/s
7.82121	0.0445465	6.4	65	-0.000228932	dWE(1).Potential/dt < 1E-06 V/s
7.92121	0.0445343	6.5	66	-6.09706e-05	dWE(1).Potential/dt < 1E-06 V/s
8.02121	0.0445221	6.6	67	-0.00014243	dWE(1).Potential/dt < 1E-06 V/s
8.12121	0.0445068	6.7	68	-0.000178044	dWE(1).Potential/dt < 1E-06 V/s
8.22121	0.0444916	6.8	69	-0.00014243	dWE(1).Potential/dt < 1E-06 V/s
8.32121	0.0444794	6.9	70	-9.66714e-05	dWE(1).Potential/dt < 1E-06 V/s
8.42121	0.044458	7	71	-0.000300023	dWE(1).Potential/dt < 1E-06 V/s
8.52121	0.0444458	7.1	72	-1.52613e-05	dWE(1).Potential/dt < 1E-06 V/s
8.62121	0.0444275	7.2	73	-0.000264496	dWE(1).Potential/dt < 1E-06 V/s
8.72121	0.0444092	7.3	74	-0.000162795	dWE(1).Potential/dt < 1E-06 V/s
8.82121	0.0443939	7.4	75	-0.000127169	dWE(1).Potential/dt < 1E-06 V/s
8.92121	0.0443817	7.5	76	-0.000106767	dWE(1).Potential/dt < 1E-06 V/s
9.02121	0.0443756	7.6	77	-2.03898e-05	dWE(1).Potential/dt < 1E-06 V/s
9.12121	0.0443634	7.7	78	-0.000193243	dWE(1).Potential/dt < 1E-06 V/s
9.22121	0.0443481	7.8	79	-0.000157729	dWE(1).Potential/dt < 1E-06 V/s
9.32121	0.044339	7.9	80	-3.04853e-05	dWE(1).Potential/dt < 1E-06 V/s
9.42121	0.0443359	8	81	-2.48353e-08	dWE(1).Potential/dt < 1E-06 V/s
9.52121	0.0443237	8.1	82	-0.000218675	dWE(1).Potential/dt < 1E-06 V/s
9.62121	0.0443115	8.2	83	-9.1605e-05	dWE(1).Potential/dt < 1E-06 V/s
9.72121	0.0443024	8.3	84	-6.61364e-05	dWE(1).Potential/dt < 1E-06 V/s
9.82121	0.0442932	8.4	85	-0.000101688	dWE(1).Potential/dt < 1E-06 V/s
9.92121	0.0442932	8.5	86	7.62443e-05
10.0212	0.044281	8.6	87	-0.000254338	dWE(1).Potential/dt < 1E-06 V/s
10.1212	0.044278	8.7	88	8.65137e-05
10.2212	0.0442657	8.8	89	-0.000228944	dWE(1).Potential/dt < 1E-06 V/s
10.3212	0.0442596	8.9	90	2.04146e-05
10.4212	0.0442535	9	91	-8.14225e-05	dWE(1).Potential/dt < 1E-06 V/s
10.5212	0.0442383	9.1	92	-0.000228832	dWE(1).Potential/dt < 1E-06 V/s
10.6212	0.0442291	9.2	93	-1.0108e-05	dWE(1).Potential/dt < 1E-06 V/s
10.7212	0.0442169	9.3	94	-0.000167874	dWE(1).Potential/dt < 1E-06 V/s
10.8212	0.0442108	9.4	95	-8.69235e-08	dWE(1).Potential/dt < 1E-06 V/s
10.9212	0.0442017	9.5	96	-0.000137265	dWE(1).Potential/dt < 1E-06 V/s
11.0212	0.0441956	9.6	97	-2.55431e-05	dWE(1).Potential/dt < 1E-06 V/s
11.1212	0.0441864	9.7	98	-0.000127082	dWE(1).Potential/dt < 1E-06 V/s
11.2212	0.0441833	9.8	99	3.04853e-05
11.3212	0.0441772	9.9	100	-0.000106817	dWE(1).Potential/dt < 1E-06 V/s
11.4212	0.0441772	10	101	6.10824e-05
11.5212	0.044162	10.1	102	-0.000300085	dWE(1).Potential/dt < 1E-06 V/s
11.6212	0.0441559	10.2	103	6.61736e-05
11.7212	0.0441406	10.3	104	-0.000259467	dWE(1).Potential/dt < 1E-06 V/s
11.8212	0.0441467	10.4	105	0.000269525
11.9212	0.0441437	10.5	106	-0.000177932	dWE(1).Potential/dt < 1E-06 V/s
12.0212	0.0441406	10.6	107	-1.24176e-08	dWE(1).Potential/dt < 1E-06 V/s
12.1212	0.0441376	10.7	108	-3.0535e-05	dWE(1).Potential/dt < 1E-06 V/s
12.2212	0.0441376	10.8	109	2.5481e-05
12.3212	0.0441345	10.9	110	-6.61736e-05	dWE(1).Potential/dt < 1E-06 V/s
12.4212	0.0441254	11	111	-0.000132198	dWE(1).Potential/dt < 1E-06 V/s
12.5212	0.0441254	11.1	112	9.65845e-05
12.6212	0.0441193	11.2	113	-0.00014248	dWE(1).Potential/dt < 1E-06 V/s
12.7212	0.0441132	11.3	114	-4.0643e-05	dWE(1).Potential/dt < 1E-06 V/s
12.8212	0.0441071	11.4	115	-6.10079e-05	dWE(1).Potential/dt < 1E-06 V/s
12.9212	0.0441071	11.5	116	5.08875e-05
13.0212	0.044101	11.6	117	-0.000132273	dWE(1).Potential/dt < 1E-06 V/s
13.1212	0.044104	11.7	118	0.000127182
13.2212	0.044104	11.8	119	-5.60036e-05	dWE(1).Potential/dt < 1E-06 V/s
13.3212	0.044104	11.9	120	1.01452e-05
13.4212	0.0440948	12	121	-0.000167812	dWE(1).Potential/dt < 1E-06 V/s
13.5212	0.0440887	12.1	122	-5.19058e-06	dWE(1).Potential/dt < 1E-06 V/s
13.6212	0.0440857	12.2	123	-1.5224e-05	dWE(1).Potential/dt < 1E-06 V/s
13.7212	0.0440826	12.3	124	-4.0643e-05	dWE(1).Potential/dt < 1E-06 V/s
13.8212	0.0440796	12.4	125	-3.05226e-05	dWE(1).Potential/dt < 1E-06 V/s
13.9212	0.0440735	12.5	126	-8.65634e-05	dWE(1).Potential/dt < 1E-06 V/s
14.0212	0.0440735	12.6	127	6.10451e-05
14.1212	0.0440643	12.7	128	-0.000188165	dWE(1).Potential/dt < 1E-06 V/s
14.2212	0.0440613	12.8	129	5.08378e-05
14.3212	0.0440552	12.9	130	-0.000106817	dWE(1).Potential/dt < 1E-06 V/s
14.4212	0.0440521	13	131	5.15332e-06
14.5212	0.0440491	13.1	132	-4.0705e-05	dWE(1).Potential/dt < 1E-06 V/s
14.6212	0.0440674	13.2	133	0.000361068
14.7212	0.0440674	13.3	134	-0.000223766	dWE(1).Potential/dt < 1E-06 V/s
14.8212	0.0440521	13.4	135	-0.000218712	dWE(1).Potential/dt < 1E-06 V/s
14.9212	0.0440552	13.5	136	0.000233948
15.0212	0.0440491	13.6	137	-0.000198285	dWE(1).Potential/dt < 1E-06 V/s
15.1212	0.0440399	13.7	138	-8.65758e-05	dWE(1).Potential/dt < 1E-06 V/s
15.2212	0.0440247	13.8	139	-0.000193206	dWE(1).Potential/dt < 1E-06 V/s
15.3212	0.0440186	13.9	140	3.56511e-05
15.4212	0.0440033	14	141	-0.000259467	dWE(1).Potential/dt < 1E-06 V/s
15.5212	0.0439972	14.1	142	4.57094e-05
15.6212	0.043985	14.2	143	-0.000203364	dWE(1).Potential/dt < 1E-06 V/s
15.7212	0.0439758	14.3	144	-4.58087e-05	dWE(1).Potential/dt < 1E-06 V/s
15.8212	0.0439636	14.4	145	-0.000157679	dWE(1).Potential/dt < 1E-06 V/s
15.9212	0.0439606	14.5	146	5.60036e-05
16.0212	0.0439484	14.6	147	-0.000228932	dWE(1).Potential/dt < 1E-06 V/s
16.1212	0.0439453	14.7	148	7.63561e-05
16.2212	0.0439331	14.8	149	-0.000228932	dWE(1).Potential/dt < 1E-06 V/s
16.3212	0.0439301	14.9	150	7.63561e-05
16.4212	0.043924	15	151	-0.000116974	dWE(1).Potential/dt < 1E-06 V/s
16.5212	0.0439148	15.1	152	-0.000106829	dWE(1).Potential/dt < 1E-06 V/s
16.6212	0.0439087	15.2	153	-2.53817e-05	dWE(1).Potential/dt < 1E-06 V/s
16.7212	0.0438995	15.3	154	-0.000127182	dWE(1).Potential/dt < 1E-06 V/s
16.8212	0.0438904	15.4	155	-8.14101e-05	dWE(1).Potential/dt < 1E-06 V/s
16.9212	0.0438934	15.5	156	0.000132298
17.0212	0.0438873	15.6	157	-0.000178069	dWE(1).Potential/dt < 1E-06 V/s
17.1212	0.0438843	15.7	158	2.55058e-05
17.2212	0.0438721	15.8	159	-0.000208592	dWE(1).Potential/dt < 1E-06 V/s
17.3212	0.0438538	15.9	160	-0.000203389	dWE(1).Potential/dt < 1E-06 V/s
17.4212	0.0438507	16	161	0.000116974
17.5212	0.0438568	16.1	162	8.63896e-05
17.6212	0.0438538	16.2	163	-0.00013724	dWE(1).Potential/dt < 1E-06 V/s
17.7212	0.0438385	16.3	164	-0.000223828	dWE(1).Potential/dt < 1E-06 V/s
17.8212	0.0438202	16.4	165	-0.000167824	dWE(1).Potential/dt < 1E-06 V/s
17.9212	0.0438019	16.5	166	-0.000172953	dWE(1).Potential/dt < 1E-06 V/s
18.0212	0.0437958	16.6	167	4.06802e-05
18.1212	0.0437866	16.7	168	-0.000157568	dWE(1).Potential/dt < 1E-06 V/s
18.2212	0.0437683	16.8	169	-0.000249322	dWE(1).Potential/dt < 1E-06 V/s
18.3212	0.0437531	16.9	170	-9.66465e-05	dWE(1).Potential/dt < 1E-06 V/s
18.4212	0.0437408	17	171	-0.000106767	dWE(1).Potential/dt < 1E-06 V/s
18.5212	0.0437286	17.1	172	-0.000132248	dWE(1).Potential/dt < 1E-06 V/s
18.6212	0.0437164	17.2	173	-0.000122115	dWE(1).Potential/dt < 1E-06 V/s
18.7212	0.0437012	17.3	174	-0.000177995	dWE(1).Potential/dt < 1E-06 V/s
18.8212	0.0436829	17.4	175	-0.000198347	dWE(1).Potential/dt < 1E-06 V/s
18.9212	0.0436646	17.5	176	-0.000172953	dWE(1).Potential/dt < 1E-06 V/s
19.0212	0.0436493	17.6	177	-0.000127107	dWE(1).Potential/dt < 1E-06 V/s
19.1212	0.043634	17.7	178	-0.000162733	dWE(1).Potential/dt < 1E-06 V/s
19.2212	0.0436249	17.8	179	-4.0705e-05	dWE(1).Potential/dt < 1E-06 V/s
19.3212	0.0436127	17.9	180	-0.000167862	dWE(1).Potential/dt < 1E-06 V/s
19.4212	0.0435974	18	181	-0.000167812	dWE(1).Potential/dt < 1E-06 V/s
19.5212	0.0435883	18.1	182	-3.04481e-05	dWE(1).Potential/dt < 1E-06 V/s
19.6212	0.043576	18.2	183	-0.000167874	dWE(1).Potential/dt < 1E-06 V/s
19.7212	0.0435608	18.3	184	-0.000167874	dWE(1).Potential/dt < 1E-06 V/s
19.8212	0.0435486	18.4	185	-8.65013e-05	dWE(1).Potential/dt < 1E-06 V/s
19.9212	0.0435364	18.5	186	-0.000132236	dWE(1).Potential/dt < 1E-06 V/s
20.0212	0.0435303	18.6	187	-1.00955e-05	dWE(1).Potential/dt < 1E-06 V/s
20.1212	0.043515	18.7	188	-0.000249297	dWE(1).Potential/dt < 1E-06 V/s
20.2212	0.0434998	18.8	189	-0.000122078	dWE(1).Potential/dt < 1E-06 V/s
20.3212	0.0434906	18.9	190	-4.07423e-05	dWE(1).Potential/dt < 1E-06 V/s
20.4212	0.0434814	19	191	-0.000111771	dWE(1).Potential/dt < 1E-06 V/s
20.5212	0.0434692	19.1	192	-0.000147534	dWE(1).Potential/dt < 1E-06 V/s
20.6212	0.0434479	19.2	193	-0.000279832	dWE(1).Potential/dt < 1E-06 V/s
20.7212	0.0434448	19.3	194	0.000152613
20.8212	0.0434235	19.4	195	-0.000427179	dWE(1).Potential/dt < 1E-06 V/s
20.9212	0.0434143	19.5	196	7.11034e-05
21.0212	0.043399	19.6	197	-0.000244069	dWE(1).Potential/dt < 1E-06 V/s
21.1212	0.0433899	19.7	198	-2.0278e-05	dWE(1).Potential/dt < 1E-06 V/s
21.2212	0.0433777	19.8	199	-0.000167874	dWE(1).Potential/dt < 1E-06 V/s
21.3212	0.0433655	19.9	200	-0.000111945	dWE(1).Potential/dt < 1E-06 V/s
21.4212	0.0433563	20	201	-6.61364e-05	dWE(1).Potential/dt < 1E-06 V/s
21.5212	0.0433441	20.1	202	-0.000157617	dWE(1).Potential/dt < 1E-06 V/s
21.6212	0.043335	20.2	203	-5.59787e-05	dWE(1).Potential/dt < 1E-06 V/s
21.7212	0.0433258	20.3	204	-0.00010175	dWE(1).Potential/dt < 1E-06 V/s
21.8212	0.0433197	20.4	205	-3.5589e-05	dWE(1).Potential/dt < 1E-06 V/s
21.9212	0.0433075	20.5	206	-0.000183135	dWE(1).Potential/dt < 1E-06 V/s
22.0212	0.0432983	20.6	207	-4.56721e-05	dWE(1).Potential/dt < 1E-06 V/s
22.1212	0.0432922	20.7	208	-4.5846e-05	dWE(1).Potential/dt < 1E-06 V/s
22.2212	0.04328	20.8	209	-0.000183073	dWE(1).Potential/dt < 1E-06 V/s
22.3212	0.04328	20.9	210	0.000122016
22.4212	0.0432678	21	211	-0.000264434	dWE(1).Potential/dt < 1E-06 V/s
22.5212	0.0432556	21.1	212	-8.13853e-05	dWE(1).Potential/dt < 1E-06 V/s
22.6212	0.0432465	21.2	213	-6.61861e-05	dWE(1).Potential/dt < 1E-06 V/s
22.7212	0.0432373	21.3	214	-0.000101601	dWE(1).Potential/dt < 1E-06 V/s
22.8212	0.043222	21.4	215	-0.000203463	dWE(1).Potential/dt < 1E-06 V/s
22.9212	0.043219	21.5	216	9.15056e-05
23.0212	0.0432098	21.6	217	-0.000183061	dWE(1).Potential/dt < 1E-06 V/s
23.1212	0.0431976	21.7	218	-0.000127231	dWE(1).Potential/dt < 1E-06 V/s
23.2212	0.0431885	21.8	219	-5.59539e-05	dWE(1).Potential/dt < 1E-06 V/s
23.3212	0.0431763	21.9	220	-0.000157617	dWE(1).Potential/dt < 1E-06 V/s
23.4212	0.0431702	22	221	-4.96706e-08	dWE(1).Potential/dt < 1E-06 V/s
23.5212	0.043161	22.1	222	-0.000137215	dWE(1).Potential/dt < 1E-06 V/s
23.6212	0.0431549	22.2	223	-2.55058e-05	dWE(1).Potential/dt < 1E-06 V/s
23.7212	0.0431519	22.3	224	-1.51868e-05	dWE(1).Potential/dt < 1E-06 V/s
23.8212	0.0431458	22.4	225	-9.66341e-05	dWE(1).Potential/dt < 1E-06 V/s
23.9212	0.0431396	22.5	226	-5.08999e-05	dWE(1).Potential/dt < 1E-06 V/s
24.0212	0.0431366	22.6	227	-5.01673e-06	dWE(1).Potential/dt < 1E-06 V/s
24.1212	0.0431274	22.7	228	-0.000152663	dWE(1).Potential/dt < 1E-06 V/s
24.2212	0.0431152	22.8	229	-0.000127095	dWE(1).Potential/dt < 1E-06 V/s
24.3212	0.0431122	22.9	230	5.58794e-05
24.4212	0.0431091	23	231	-6.10203e-05	dWE(1).Potential/dt < 1E-06 V/s
24.5212	0.043103	23.1	232	-8.6402e-05	dWE(1).Potential/dt < 1E-06 V/s
24.6212	0.043103	23.2	233	6.09706e-05
24.7212	0.0430969	23.3	234	-0.00013231	dWE(1).Potential/dt < 1E-06 V/s
24.8212	0.0430878	23.4	235	-9.6572e-05	dWE(1).Potential/dt < 1E-06 V/s
24.9212	0.0430847	23.5	236	3.04853e-05
25.0212	0.0430786	23.6	237	-0.000106817	dWE(1).Potential/dt < 1E-06 V/s
25.1212	0.0430756	23.7	238	5.15332e-06
25.2212	0.0430695	23.8	239	-9.66341e-05	dWE(1).Potential/dt < 1E-06 V/s
25.3212	0.0430603	23.9	240	-0.000106829	dWE(1).Potential/dt < 1E-06 V/s
25.4212	0.0430573	24	241	3.05474e-05
25.5212	0.0430481	24.1	242	-0.000162845	dWE(1).Potential/dt < 1E-06 V/s
25.6212	0.0430389	24.2	243	-7.10786e-05	dWE(1).Potential/dt < 1E-06 V/s
25.7212	0.0430328	24.3	244	-3.56759e-05	dWE(1).Potential/dt < 1E-06 V/s
25.8212	0.0430267	24.4	245	-7.11159e-05	dWE(1).Potential/dt < 1E-06 V/s
25.9212	0.0430206	24.5	246	-6.11693e-05	dWE(1).Potential/dt < 1E-06 V/s
26.0212	0.0430145	24.6	247	-6.09831e-05	dWE(1).Potential/dt < 1E-06 V/s
26.1212	0.0430115	24.7	248	-5.07882e-06	dWE(1).Potential/dt < 1E-06 V/s
26.2212	0.0430023	24.8	249	-0.000152663	dWE(1).Potential/dt < 1E-06 V/s
26.3212	0.0430023	24.9	250	9.67086e-05
26.4212	0.0429901	25	251	-0.000254326	dWE(1).Potential/dt < 1E-06 V/s
26.5212	0.0429901	25.1	252	0.000142368
26.6212	0.0429871	25.2	253	-9.66465e-05	dWE(1).Potential/dt < 1E-06 V/s
26.7212	0.042984	25.3	254	-2.02904e-05	dWE(1).Potential/dt < 1E-06 V/s
26.8212	0.0429779	25.4	255	-8.64517e-05	dWE(1).Potential/dt < 1E-06 V/s
26.9212	0.0429749	25.5	256	5.02915e-06
27.0212	0.04296875	25.6	257	-9.66093e-05	dWE(1).Potential/dt < 1E-06 V/s
27.1212	0.0429657	25.7	258	5.09123e-06
27.2212	0.0429596	25.8	259	-9.67335e-05	dWE(1).Potential/dt < 1E-06 V/s
27.3212	0.0429565	25.9	260	5.11607e-06
27.4212	0.0429504	26	261	-9.6572e-05	dWE(1).Potential/dt < 1E-06 V/s
27.5212	0.0429413	26.1	262	-0.000106916	dWE(1).Potential/dt < 1E-06 V/s
[...]
47.0212	0.0420746	45.6	457	0.000249098
47.1212	0.0420837	45.7	458	4.07423e-05
47.2212	0.0420929	45.8	459	9.15801e-05
47.3212	0.0421021	45.9	460	9.1518e-05
47.4212	0.0421082	46	461	3.57132e-05
47.5212	0.0421173	46.1	462	0.000127082
47.6212	0.0421265	46.2	463	8.14722e-05
47.7212	0.0421295	46.3	464	-2.04394e-05	dWE(1).Potential/dt < 1E-06 V/s
47.8212	0.0421356	46.4	465	0.000106804
47.9212	0.0421356	46.5	466	-6.10576e-05	dWE(1).Potential/dt < 1E-06 V/s
48.0212	0.0421387	46.6	467	7.63437e-05
48.1212	0.0421326	46.7	468	-0.000147546	dWE(1).Potential/dt < 1E-06 V/s
48.2212	0.0421356	46.8	469	0.000137364
48.3212	0.0421326	46.9	470	-0.000111933	dWE(1).Potential/dt < 1E-06 V/s
48.4212	0.0421295	47	471	-1.01204e-05	dWE(1).Potential/dt < 1E-06 V/s
48.5212	0.0421265	47.1	472	-3.05226e-05	dWE(1).Potential/dt < 1E-06 V/s
48.6212	0.0421265	47.2	473	2.53941e-05
48.7212	0.0421204	47.3	474	-0.00012214	dWE(1).Potential/dt < 1E-06 V/s
48.8212	0.0421173	47.4	475	1.52861e-05
48.9212	0.0421143	47.5	476	-4.0643e-05	dWE(1).Potential/dt < 1E-06 V/s
49.0212	0.0421143	47.6	477	2.54065e-05
49.1212	0.0421143	47.7	478	-1.01701e-05	dWE(1).Potential/dt < 1E-06 V/s
49.2212	0.0421112	47.8	479	-5.59291e-05	dWE(1).Potential/dt < 1E-06 V/s
49.3212	0.0421112	47.9	480	3.55641e-05
49.4212	0.0421173	48	481	0.000101676
49.5212	0.0421143	48.1	482	-0.00012707	dWE(1).Potential/dt < 1E-06 V/s
49.6212	0.0421112	48.2	483	-1.24176e-08	dWE(1).Potential/dt < 1E-06 V/s
49.7212	0.0421082	48.3	484	-3.0535e-05	dWE(1).Potential/dt < 1E-06 V/s
49.8212	0.0421051	48.4	485	-3.05474e-05	dWE(1).Potential/dt < 1E-06 V/s
49.9212	0.0421021	48.5	486	-3.05102e-05	dWE(1).Potential/dt < 1E-06 V/s
50.0212	0.0421021	48.6	487	2.54562e-05
50.1212	0.042099	48.7	488	-6.60867e-05	dWE(1).Potential/dt < 1E-06 V/s
50.2212	0.042099	48.8	489	3.55766e-05
50.3212	0.0420959	48.9	490	-6.60991e-05	dWE(1).Potential/dt < 1E-06 V/s
50.4212	0.0420959	49	491	3.55641e-05
50.5212	0.0420959	49.1	492	-1.01825e-05	dWE(1).Potential/dt < 1E-06 V/s
50.6212	0.0420929	49.2	493	-5.59415e-05	dWE(1).Potential/dt < 1E-06 V/s
50.7212	0.0420959	49.3	494	9.15801e-05
50.8212	0.0420929	49.4	495	-0.000101738	dWE(1).Potential/dt < 1E-06 V/s
50.9212	0.0420929	49.5	496	4.58211e-05
51.0212	0.0420898	49.6	497	-6.61736e-05	dWE(1).Potential/dt < 1E-06 V/s
51.1212	0.0420898	49.7	498	3.5589e-05
51.2212	0.0420868	49.8	499	-6.61364e-05	dWE(1).Potential/dt < 1E-06 V/s
51.3212	0.0420837	49.9	500	-2.02904e-05	dWE(1).Potential/dt < 1E-06 V/s
51.4212	0.0420868	50	501	8.13356e-05
51.5212	0.0420868	50.1	502	-4.57342e-05	dWE(1).Potential/dt < 1E-06 V/s
51.6212	0.0420837	50.2	503	-4.57466e-05	dWE(1).Potential/dt < 1E-06 V/s
51.7212	0.0420807	50.3	504	-2.03525e-05	dWE(1).Potential/dt < 1E-06 V/s
51.8212	0.0420807	50.4	505	2.53941e-05
51.9212	0.0420746	50.5	506	-0.00012214	dWE(1).Potential/dt < 1E-06 V/s
52.0212	0.0420715	50.6	507	1.52861e-05
52.1212	0.0420715	50.7	508	1.52861e-05
52.2212	0.0420685	50.8	509	-6.60867e-05	dWE(1).Potential/dt < 1E-06 V/s
52.3212	0.0420685	50.9	510	3.55766e-05
52.4212	0.0420685	51	511	-1.01701e-05	dWE(1).Potential/dt < 1E-06 V/s
52.5212	0.0420654	51.1	512	-5.59291e-05	dWE(1).Potential/dt < 1E-06 V/s
52.6212	0.0420654	51.2	513	3.55641e-05
52.7212	0.0420624	51.3	514	-6.61115e-05	dWE(1).Potential/dt < 1E-06 V/s
52.8212	0.0420563	51.4	515	-7.63064e-05	dWE(1).Potential/dt < 1E-06 V/s
52.9212	0.0420563	51.5	516	6.10824e-05
53.0212	0.0420563	51.6	517	-2.03401e-05	dWE(1).Potential/dt < 1E-06 V/s
53.1212	0.0420654	51.7	518	0.000167899
53.2212	0.0420685	51.8	519	-5.09496e-05	dWE(1).Potential/dt < 1E-06 V/s
53.3212	0.0420654	51.9	520	-6.09831e-05	dWE(1).Potential/dt < 1E-06 V/s
53.4212	0.0420593	52	521	-6.62233e-05	dWE(1).Potential/dt < 1E-06 V/s
53.5212	0.0420593	52.1	522	6.10451e-05
53.6212	0.0420624	52.2	523	3.56511e-05
53.7212	0.0420593	52.3	524	-9.16174e-05	dWE(1).Potential/dt < 1E-06 V/s
53.8212	0.0420563	52.4	525	-1.01576e-05	dWE(1).Potential/dt < 1E-06 V/s
53.9212	0.0420532	52.5	526	-3.04729e-05	dWE(1).Potential/dt < 1E-06 V/s
54.0212	0.0420532	52.6	527	2.54065e-05
54.1212	0.0420502	52.7	528	-6.60991e-05	dWE(1).Potential/dt < 1E-06 V/s
54.2212	0.0420502	52.8	529	3.55641e-05
54.3212	0.0420441	52.9	530	-0.00012214	dWE(1).Potential/dt < 1E-06 V/s
54.4212	0.042038	53	531	-4.0643e-05	dWE(1).Potential/dt < 1E-06 V/s
54.5212	0.0420319	53.1	532	-6.10079e-05	dWE(1).Potential/dt < 1E-06 V/s
54.6212	0.0420349	53.2	533	0.000106817
54.7212	0.0420288	53.3	534	-0.000167936	dWE(1).Potential/dt < 1E-06 V/s
54.8212	0.0420258	53.4	535	2.54562e-05
54.9212	0.0420227	53.5	536	-4.0643e-05	dWE(1).Potential/dt < 1E-06 V/s
55.0212	0.0420197	53.6	537	-3.05226e-05	dWE(1).Potential/dt < 1E-06 V/s
55.1212	0.0420197	53.7	538	2.53941e-05
55.2212	0.0420166	53.8	539	-6.61115e-05	dWE(1).Potential/dt < 1E-06 V/s
55.3212	0.0420166	53.9	540	3.56511e-05
55.4212	0.0420135	54	541	-6.61736e-05	dWE(1).Potential/dt < 1E-06 V/s
55.5212	0.0420074	54.1	542	-7.62692e-05	dWE(1).Potential/dt < 1E-06 V/s
55.6212	0.0420105	54.2	543	0.000116949
55.7212	0.0420074	54.3	544	-0.000111833	dWE(1).Potential/dt < 1E-06 V/s
55.8212	0.0420074	54.4	545	4.57466e-05
55.9212	0.0420044	54.5	546	-6.60991e-05	dWE(1).Potential/dt < 1E-06 V/s
56.0212	0.0419983	54.6	547	-7.63934e-05	dWE(1).Potential/dt < 1E-06 V/s
56.1212	0.0420013	54.7	548	0.000117074
56.2212	0.0419952	54.8	549	-0.000167899	dWE(1).Potential/dt < 1E-06 V/s
56.3212	0.0419952	54.9	550	8.14349e-05
56.4212	0.0419891	55	551	-0.000132198	dWE(1).Potential/dt < 1E-06 V/s
56.5212	0.0419891	55.1	552	7.11407e-05
56.6212	0.0419861	55.2	553	-7.62816e-05	dWE(1).Potential/dt < 1E-06 V/s
56.7212	0.041983	55.3	554	-2.03774e-05	dWE(1).Potential/dt < 1E-06 V/s
56.8212	0.04198	55.4	555	-3.05102e-05	dWE(1).Potential/dt < 1E-06 V/s
56.9212	0.0419769	55.5	556	-3.04729e-05	dWE(1).Potential/dt < 1E-06 V/s
57.0212	0.0419739	55.6	557	-3.05226e-05	dWE(1).Potential/dt < 1E-06 V/s
57.1212	0.0419708	55.7	558	-3.0535e-05	dWE(1).Potential/dt < 1E-06 V/s
57.2212	0.0419708	55.8	559	2.5481e-05
57.3212	0.0419617	55.9	560	-0.000178032	dWE(1).Potential/dt < 1E-06 V/s
57.4212	0.0419617	56	561	0.000106817
57.5212	0.0419556	56.1	562	-0.000142381	dWE(1).Potential/dt < 1E-06 V/s
57.6212	0.0419525	56.2	563	1.51992e-05
57.7212	0.0419495	56.3	564	-4.06802e-05	dWE(1).Potential/dt < 1E-06 V/s
57.8212	0.0419495	56.4	565	2.54562e-05
57.9212	0.0419403	56.5	566	-0.000177945	dWE(1).Potential/dt < 1E-06 V/s
58.0212	0.0419342	56.6	567	-5.15332e-06	dWE(1).Potential/dt < 1E-06 V/s
58.1212	0.0419281	56.7	568	-7.11159e-05	dWE(1).Potential/dt < 1E-06 V/s
58.2212	0.041925	56.8	569	-5.14091e-06	dWE(1).Potential/dt < 1E-06 V/s
58.3212	0.0419159	56.9	570	-0.000152576	dWE(1).Potential/dt < 1E-06 V/s
58.4212	0.0419159	57	571	9.66465e-05
58.5212	0.0419128	57.1	572	-8.64517e-05	dWE(1).Potential/dt < 1E-06 V/s
58.6212	0.0419098	57.2	573	-2.03649e-05	dWE(1).Potential/dt < 1E-06 V/s
58.7212	0.0419098	57.3	574	2.5481e-05
58.8212	0.0419067	57.4	575	-6.61736e-05	dWE(1).Potential/dt < 1E-06 V/s
58.9212	0.0418976	57.5	576	-0.000132198	dWE(1).Potential/dt < 1E-06 V/s
59.0212	0.0418945	57.6	577	4.06554e-05
59.1212	0.0418884	57.7	578	-0.000106817	dWE(1).Potential/dt < 1E-06 V/s
59.2212	0.0418793	57.8	579	-0.000106705	dWE(1).Potential/dt < 1E-06 V/s
59.3212	0.0418701	57.9	580	-8.14349e-05	dWE(1).Potential/dt < 1E-06 V/s
59.4212	0.0418701	58	581	7.63064e-05
59.5212	0.041861	58.1	582	-0.000198409	dWE(1).Potential/dt < 1E-06 V/s
59.6212	0.0418549	58.2	583	-5.0664e-06	dWE(1).Potential/dt < 1E-06 V/s
59.7212	0.0418518	58.3	584	-1.52489e-05	dWE(1).Potential/dt < 1E-06 V/s
59.8212	0.0418457	58.4	585	-9.67335e-05	dWE(1).Potential/dt < 1E-06 V/s
59.9212	0.0418396	58.5	586	-5.0813e-05	dWE(1).Potential/dt < 1E-06 V/s
60.0212	0.0418335	58.6	587	-6.10079e-05	dWE(1).Potential/dt < 1E-06 V/s
60.1212	0.0418304	58.7	588	-5.14091e-06	dWE(1).Potential/dt < 1E-06 V/s
60.2212	0.0418213	58.8	589	-0.000152538	dWE(1).Potential/dt < 1E-06 V/s
60.3212	0.0418213	58.9	590	9.65845e-05
60.4212	0.0418121	59	591	-0.000198409	dWE(1).Potential/dt < 1E-06 V/s
60.5212	0.041803	59.1	592	-6.09086e-05	dWE(1).Potential/dt < 1E-06 V/s
60.6212	0.0417938	59.2	593	-9.1605e-05	dWE(1).Potential/dt < 1E-06 V/s
60.7212	0.0417877	59.3	594	-3.55517e-05	dWE(1).Potential/dt < 1E-06 V/s
60.8212	0.0417786	59.4	595	-0.000127182	dWE(1).Potential/dt < 1E-06 V/s
60.9212	0.0417725	59.5	596	-2.53817e-05	dWE(1).Potential/dt < 1E-06 V/s
61.0212	0.0417633	59.6	597	-0.000127182	dWE(1).Potential/dt < 1E-06 V/s
61.1212	0.0417542	59.7	598	-8.14101e-05	dWE(1).Potential/dt < 1E-06 V/s
61.2212	0.041748	59.8	599	-3.5589e-05	dWE(1).Potential/dt < 1E-06 V/s
61.3212	0.0417389	59.9	600	-0.000127206	dWE(1).Potential/dt < 1E-06 V/s