File: data/Z_measu_on_silk_fibroin/Z_GNP1%_IV.txt
Index	Frequency (Hz)	Z' (Ω)	-Z'' (Ω)	Z (Ω)	-Phase (°)	Time (s)
1	1000000	-520.279	13423.6	13433.7	92.2196	39.4025
2	794330	4507.41	17650.9	18217.3	75.6749	40.7025
3	630960	10472.1	21753.1	24142.6	64.2935	41.9876
4	501190	15891.8	25291.2	29869.6	57.8567	43.3776
5	398110	20562.1	33918.8	39664.6	58.7751	44.6976
6	316230	24520.2	37503.3	44807.8	56.8227	45.9926
7	251190	27967.9	41016.2	49644	55.711	48.1427
8	199530	32021.2	46394.7	56372.2	55.3869	49.3427
9	158490	36409.3	52944.2	64255.2	55.484	50.6377
10	125890	41172.6	60957	73559.1	55.9634	51.8377
11	100000	46745.8	70629.7	84697.9	56.5017	53.1378
12	79433	52956.2	82085.9	97685.4	57.1727	54.3278
13	63096	60182.3	96252.4	113518	57.9841	55.6278
14	50119	69220.1	112351	131963	58.3626	56.9228
15	39811	80136.8	132152	154551	58.7675	58.1229
16	31623	93616.9	154513	180661	58.789	59.3129
17	25119	109780	181191	211853	58.7892	60.5129
18	19953	129499	211462	247964	58.5168	61.7029
19	15849	153777	246629	290643	58.0558	62.898
20	12589	184362	286537	340724	57.2423	64.098
21	10000	216636	330569	395231	56.7614	65.313
22	7943.3	262095	378983	460784	55.3333	66.503
23	6309.6	317203	430887	535053	53.6409	67.698
24	5011.9	383734	484910	618376	51.6436	68.8881
25	3981.1	461491	538894	709493	49.4243	70.0781
26	3162.3	551507	591037	808383	46.9815	71.2681
27	2511.9	653595	638884	913980	44.3479	72.4531
28	1995.3	763882	681611	1.02377e+06	41.7425	73.6482
29	1584.9	888150	713147	1.13903e+06	38.763	74.8032
30	1258.9	1.02441e+06	746807	1.26773e+06	36.0926	75.9682
31	1000	1.15153e+06	747153	1.37268e+06	32.9769	77.1682
32	794.33	1.28158e+06	755557	1.48772e+06	30.5216	78.4582
33	630.96	1.41746e+06	733786	1.59613e+06	27.3696	79.6433
34	501.19	1.54664e+06	707142	1.70063e+06	24.5705	80.8433
35	398.11	1.66026e+06	671421	1.79088e+06	22.0188	82.0133
36	316.23	1.77337e+06	620589	1.87883e+06	19.2874	83.2033
37	251.19	1.86369e+06	570408	1.94903e+06	17.0174	84.4334
38	199.53	1.94914e+06	540448	2.02268e+06	15.4973	85.6234
39	158.49	2.02226e+06	488731	2.08048e+06	13.5865	86.8484
40	125.89	2.05183e+06	451223	2.10086e+06	12.4026	88.1084
41	100	2.15458e+06	434713	2.198e+06	11.407	89.3784
42	79.433	2.17484e+06	359835	2.20441e+06	9.39467	90.6735
43	63.096	1.78882e+06	162557	1.79619e+06	5.19243	92.0185
44	50.119	2.26647e+06	317021	2.28854e+06	7.96254	101.774
45	39.811	2.29146e+06	297615	2.31071e+06	7.40016	110.684
46	31.623	2.3095e+06	224724	2.32041e+06	5.5576	112.184
47	25.119	2.4063e+06	236363	2.41788e+06	5.60999	113.729
48	19.953	2.39362e+06	263982	2.40813e+06	6.29346	115.489
49	15.849	2.41857e+06	200823	2.4269e+06	4.74659	117.309
50	12.589	2.44443e+06	255341	2.45773e+06	5.96339	119.144
51	10	2.48984e+06	248478	2.5022e+06	5.69907	121.314
52	7.9433	2.51304e+06	236826	2.52417e+06	5.38358	123.504
53	6.3096	2.5836e+06	253593	2.59602e+06	5.6059	125.804
54	5.0119	2.58756e+06	255080	2.6001e+06	5.63001	128.119
55	3.9811	2.62213e+06	262334	2.63522e+06	5.71321	130.409
56	3.1623	2.65931e+06	265189	2.6725e+06	5.69476	132.814
57	2.5119	2.68946e+06	266506	2.70263e+06	5.65912	135.199
58	1.9953	2.72534e+06	282990	2.74e+06	5.92814	137.759
59	1.5849	2.76268e+06	290786	2.77794e+06	6.00854	140.344
60	1.2589	2.80352e+06	299672	2.81949e+06	6.10126	143.149
61	1	2.84668e+06	319016	2.8645e+06	6.39423	146.279
62	0.79433	2.89005e+06	334281	2.90931e+06	6.59787	149.45
63	0.63096	2.93346e+06	354716	2.95483e+06	6.89477	152.87
64	0.50119	2.97851e+06	373958	3.00189e+06	7.15615	156.605
65	0.39811	3.02515e+06	400519	3.05155e+06	7.54188	160.75
66	0.31623	3.07021e+06	436056	3.10102e+06	8.08354	165.43
67	0.25119	3.12753e+06	467638	3.1623e+06	8.50404	170.735
68	0.19953	3.18382e+06	509762	3.22438e+06	9.09643	176.79
69	0.15849	3.24419e+06	562405	3.29258e+06	9.83491	183.895
70	0.12589	3.318e+06	626535	3.37664e+06	10.6932	192.355
71	0.1	3.38285e+06	682672	3.45105e+06	11.4093	202.456