File: data/Z_measu_on_silk_fibroin/Z_GNP0.1%_SF1.txt
Index	Frequency (Hz)	Z' (Ω)	-Z'' (Ω)	Z (Ω)	-Phase (°)	Time (s)
1	1000000	-3936.36	14532.8	15056.5	105.156	69.9991
2	794330	170.984	23131.6	23132.3	89.5765	71.3341
3	630960	8316.42	33362.9	34383.8	76.003	72.6191
4	501190	16894.7	42598.9	45826.8	68.3668	74.0091
5	398110	24847.6	67800.5	72210.2	69.8731	75.3092
6	316230	36220.7	75683.9	83904.6	64.4252	76.5942
7	251190	43773.7	83112	93934.8	62.225	78.7742
8	199530	53550.4	92826.5	107165	60.0199	79.9492
9	158490	63277.7	103788	121556	58.63	81.2343
10	125890	73208.3	117560	138491	58.0881	82.4143
11	100000	83875.4	133908	158007	57.9383	83.7093
12	79433	94980.5	153921	180867	58.3224	84.8943
13	63096	107358	178621	208402	58.9924	86.1794
14	50119	121550	209875	242532	59.9225	87.4694
15	39811	140845	248157	285341	60.4224	88.7594
16	31623	165506	285357	329880	59.8864	89.9444
17	25119	184843	332782	380672	60.9501	91.1344
18	19953	208574	393120	445024	62.0513	92.3245
19	15849	239977	469050	526875	62.9046	93.5145
20	12589	275235	554727	619255	63.6111	94.7095
21	10000	314609	658862	730121	64.4754	95.9445
22	7943.3	367770	784597	866515	64.8858	97.1346
23	6309.6	435045	932415	1.02891e+06	64.9872	98.3296
24	5011.9	516658	1.11243e+06	1.22656e+06	65.088	99.5246
25	3981.1	620946	1.31795e+06	1.45691e+06	64.7728	100.71
26	3162.3	750410	1.56201e+06	1.73292e+06	64.3398	101.905
27	2511.9	915504	1.8502e+06	2.06431e+06	63.6731	103.09
28	1995.3	1.11868e+06	2.17471e+06	2.44557e+06	62.7786	104.275
29	1584.9	1.38084e+06	2.55558e+06	2.90477e+06	61.6165	105.43
30	1258.9	1.75685e+06	2.95472e+06	3.43757e+06	59.2647	106.585
31	1000	2.10348e+06	3.43798e+06	4.03042e+06	58.5402	107.78
32	794.33	2.6106e+06	3.93002e+06	4.71808e+06	56.4051	109.06
33	630.96	3.19732e+06	4.4214e+06	5.45634e+06	54.1275	110.245
34	501.19	3.87973e+06	4.95981e+06	6.29699e+06	51.9663	111.445
35	398.11	4.7344e+06	5.4749e+06	7.23803e+06	49.1485	112.655
36	316.23	5.59677e+06	6.02522e+06	8.22357e+06	47.1113	113.845
37	251.19	6.55513e+06	6.36581e+06	9.13747e+06	44.1605	115.07
38	199.53	7.79416e+06	6.70149e+06	1.02791e+07	40.6893	116.255
39	158.49	8.8985e+06	6.98472e+06	1.13124e+07	38.1295	117.485
40	125.89	1.01145e+07	6.6157e+06	1.20859e+07	33.188	118.745
41	100	1.12014e+07	6.53103e+06	1.29663e+07	30.2446	120.005
42	79.433	1.2519e+07	6.88562e+06	1.42876e+07	28.8115	121.29
43	63.096	6.60439e+06	3.95321e+06	7.69713e+06	30.9036	122.625
44	50.119	1.48515e+07	7.0391e+06	1.64352e+07	25.3594	123.87
45	39.811	1.57214e+07	7.23389e+06	1.73058e+07	24.7086	132.93
46	31.623	1.56195e+07	8.10731e+06	1.75982e+07	27.4316	134.435
47	25.119	1.71641e+07	4.53842e+06	1.7754e+07	14.8108	135.875
48	19.953	1.88057e+07	6.7265e+06	1.99725e+07	19.6813	137.635
49	15.849	1.75548e+07	4.92836e+06	1.82335e+07	15.6816	139.45
50	12.589	2.09108e+07	7.38469e+06	2.21764e+07	19.4508	141.29
51	10	2.14946e+07	6.71835e+06	2.25201e+07	17.3572	143.455
52	7.9433	2.32737e+07	1.00549e+07	2.53528e+07	23.3656	145.655
53	6.3096	2.37301e+07	7.03167e+06	2.475e+07	16.5055	147.945
54	5.0119	2.43083e+07	6.85259e+06	2.52557e+07	15.7434	150.231
55	3.9811	2.51776e+07	7.29761e+06	2.62139e+07	16.164	152.511
56	3.1623	2.61695e+07	7.43188e+06	2.72043e+07	15.854	154.931
57	2.5119	2.71184e+07	7.99959e+06	2.82737e+07	16.4354	157.316
58	1.9953	2.85093e+07	8.35087e+06	2.97072e+07	16.3262	159.876
59	1.5849	2.9474e+07	8.59518e+06	3.07017e+07	16.2577	162.476
60	1.2589	3.11527e+07	8.61635e+06	3.23223e+07	15.4606	165.276
61	1	3.2154e+07	9.23632e+06	3.34543e+07	16.0268	170.221
62	0.79433	3.35423e+07	9.59158e+06	3.48867e+07	15.9581	173.261
63	0.63096	3.50235e+07	9.95351e+06	3.64104e+07	15.8649	176.611
64	0.50119	3.64043e+07	1.04341e+07	3.78701e+07	15.9932	180.281
65	0.39811	3.7972e+07	1.08929e+07	3.95036e+07	16.0064	184.401
66	0.31623	3.95992e+07	1.12304e+07	4.11609e+07	15.8334	189.111
67	0.25119	4.1272e+07	1.17781e+07	4.29197e+07	15.9275	194.466
68	0.19953	4.31053e+07	1.21616e+07	4.47881e+07	15.7557	200.626
69	0.15849	4.50188e+07	1.26985e+07	4.67755e+07	15.7522	207.837
70	0.12589	4.6852e+07	1.30493e+07	4.86353e+07	15.5636	216.302
71	0.1	4.89291e+07	1.3605e+07	5.07854e+07	15.5389	226.347