File: data/Z_measu_on_silk_fibroin/Z_GNP0.5%_IV.txt
Index	Frequency (Hz)	Z' (Ω)	-Z'' (Ω)	Z (Ω)	-Phase (°)	Time (s)
1	1000000	-2722.69	14831.9	15079.7	100.402	69.9671
2	794330	2207.56	22052.4	22162.6	84.2834	71.4571
3	630960	10224.3	29222.5	30959.5	70.7163	72.7571
4	501190	18279.1	35707.2	40114	62.8913	74.1471
5	398110	26863.8	53890.8	60215.3	63.5044	75.4422
6	316230	34578.3	58448	67910.4	59.3911	76.7272
7	251190	41466.3	62632.7	75115.3	56.4932	78.8772
8	199530	48828.7	68963	84499.4	54.6999	80.0773
9	158490	56107.9	76636.1	94980	53.7909	81.3673
10	125890	63797.4	86194.2	107236	53.4927	82.5523
11	100000	72288.8	98091	121850	53.6114	83.8523
12	79433	81306.8	111531	138022	53.9077	85.0424
13	63096	91901	128797	158223	54.4909	86.3274
14	50119	104717	149463	182496	54.9841	87.6124
15	39811	121312	174158	212244	55.1402	88.7974
16	31623	142325	199409	244990	54.4833	89.9874
17	25119	161074	228528	279589	54.8226	91.1825
18	19953	185486	265609	323965	55.0718	92.3775
19	15849	216428	307564	376080	54.8665	93.5575
20	12589	255195	355383	437517	54.3185	94.7475
21	10000	294723	409231	504313	54.239	95.9626
22	7943.3	351086	467909	584979	53.1181	97.1576
23	6309.6	419585	530205	676143	51.6432	98.3476
24	5011.9	501441	595400	778424	49.8962	99.5326
25	3981.1	598523	661660	892202	47.8682	100.718
26	3162.3	709904	724056	1.01401e+06	45.5654	101.898
27	2511.9	837373	780738	1.14488e+06	42.9954	103.083
28	1995.3	977027	827422	1.28032e+06	40.2605	104.273
29	1584.9	1.13032e+06	858829	1.41958e+06	37.228	105.428
30	1258.9	1.28909e+06	902256	1.57347e+06	34.9889	106.603
31	1000	1.45223e+06	873326	1.6946e+06	31.0214	107.798
32	794.33	1.61135e+06	854041	1.82369e+06	27.9243	109.098
33	630.96	1.75849e+06	831856	1.94532e+06	25.3166	110.268
34	501.19	1.89062e+06	785047	2.04713e+06	22.5498	111.468
35	398.11	2.01455e+06	735002	2.14444e+06	20.0444	112.638
36	316.23	2.14018e+06	705005	2.25331e+06	18.2326	113.833
37	251.19	2.21553e+06	628901	2.30306e+06	15.8472	115.048
38	199.53	2.32668e+06	608532	2.40494e+06	14.6571	116.248
39	158.49	2.3793e+06	551403	2.44236e+06	13.0479	117.483
40	125.89	2.44604e+06	476440	2.49201e+06	11.0221	118.753
41	100	2.54144e+06	522625	2.59462e+06	11.6204	120.003
42	79.433	2.5433e+06	451942	2.58314e+06	10.0762	121.293
43	63.096	1.88116e+06	849741	2.06418e+06	24.3092	122.638
44	50.119	2.65264e+06	427766	2.68691e+06	9.16067	132.378
45	39.811	2.72094e+06	427560	2.75433e+06	8.93024	141.288
46	31.623	2.64819e+06	544036	2.7035e+06	11.6091	142.783
47	25.119	2.69372e+06	352018	2.71662e+06	7.44529	144.223
48	19.953	2.85364e+06	432015	2.88616e+06	8.60868	145.998
49	15.849	2.97766e+06	604702	3.03844e+06	11.4795	147.809
50	12.589	2.86221e+06	385226	2.88801e+06	7.66542	149.744
51	10	3.03622e+06	482604	3.07433e+06	9.03155	151.909
52	7.9433	3.16358e+06	626535	3.22503e+06	11.2022	154.099
53	6.3096	3.18972e+06	504723	3.22941e+06	8.99161	156.279
54	5.0119	3.25549e+06	547608	3.30123e+06	9.54837	158.499
55	3.9811	3.32603e+06	568555	3.37428e+06	9.70042	160.784
56	3.1623	3.40624e+06	602342	3.45909e+06	10.0282	163.204
57	2.5119	3.49404e+06	623212	3.54918e+06	10.1132	165.604
58	1.9953	3.58628e+06	651419	3.64496e+06	10.2951	168.169
59	1.5849	3.66721e+06	677344	3.72924e+06	10.4647	170.744
60	1.2589	3.77676e+06	742361	3.84903e+06	11.1203	173.549
61	1	3.87669e+06	760762	3.95063e+06	11.1027	176.734
62	0.79433	3.97656e+06	794360	4.05512e+06	11.2968	179.864
63	0.63096	4.08328e+06	835181	4.16782e+06	11.5597	183.274
64	0.50119	4.18794e+06	884751	4.28038e+06	11.929	186.934
65	0.39811	4.31028e+06	936116	4.41077e+06	12.2533	191.014
66	0.31623	4.43162e+06	1.01518e+06	4.54641e+06	12.9025	195.599
67	0.25119	4.55549e+06	1.08179e+06	4.68218e+06	13.3586	200.929
68	0.19953	4.69133e+06	1.16986e+06	4.83499e+06	14.0021	206.99
69	0.15849	4.83855e+06	1.2848e+06	5.00622e+06	14.8708	214.08
70	0.12589	5.01379e+06	1.37323e+06	5.19845e+06	15.3171	222.485
71	0.1	5.16738e+06	1.53123e+06	5.38948e+06	16.5059	232.59