File: data/Z_measu_on_silk_fibroin/Z_GNP0.1%_IV.txt
Index	Frequency (Hz)	Z' (Ω)	-Z'' (Ω)	Z (Ω)	-Phase (°)	Time (s)
1	1000000	-818.91	14827.8	14850.4	93.1611	69.9271
2	794330	4642.68	19381	19929.3	76.5288	71.2371
3	630960	12187.3	23613.6	26573.1	62.701	72.5171
4	501190	17909	26132.1	31680	55.5761	73.9071
5	398110	26995.1	35572.7	44655.9	52.8061	75.2072
6	316230	32078.6	37158.3	49089.5	49.1961	76.4972
7	251190	35985.2	38767.3	52894.6	47.1314	78.6372
8	199530	40405.9	41827.3	58156.3	45.9903	79.8373
9	158490	44755	45759.7	64007.5	45.636	81.1273
10	125890	49259	50708.4	70695	45.8307	82.3173
11	100000	54111	56736.8	78403.2	46.357	83.6173
12	79433	59385.7	64498.3	87673.7	47.3632	84.7973
13	63096	65270	73933.2	98622	48.5612	86.0874
14	50119	72245	85367.7	111835	49.7594	87.3774
15	39811	80789.2	98959.6	127749	50.7723	88.5724
16	31623	91322.1	113876	145971	51.2724	89.7574
17	25119	101934	132008	166783	52.3256	90.9525
18	19953	115493	153926	192437	53.1185	92.1375
19	15849	131817	179299	222539	53.6773	93.3275
20	12589	152709	208761	258653	53.8144	94.5175
21	10000	174110	242038	298155	54.2707	95.7276
22	7943.3	205177	279624	346824	53.7303	96.9326
23	6309.6	243449	320627	402578	52.7909	98.1326
24	5011.9	289959	365410	466477	51.5674	99.3276
25	3981.1	346986	411872	538551	49.8871	100.513
26	3162.3	415031	459102	618890	47.8863	101.693
27	2511.9	494363	504714	706492	45.5936	102.883
28	1995.3	583838	542457	796948	42.8959	104.068
29	1584.9	688790	573923	896559	39.8022	105.218
30	1258.9	792157	586706	985767	36.5253	106.383
31	1000	909927	600918	1.09045e+06	33.4409	107.593
32	794.33	1.02392e+06	588554	1.18102e+06	29.8904	108.893
33	630.96	1.13302e+06	572356	1.26938e+06	26.8012	110.058
34	501.19	1.22907e+06	540273	1.34257e+06	23.7293	111.258
35	398.11	1.31926e+06	498609	1.41034e+06	20.7038	112.433
36	316.23	1.39577e+06	464530	1.47105e+06	18.408	113.628
37	251.19	1.45679e+06	414717	1.51468e+06	15.8905	114.863
38	199.53	1.52577e+06	372896	1.57067e+06	13.7338	116.058
39	158.49	1.55922e+06	334258	1.59465e+06	12.0996	117.288
40	125.89	1.57696e+06	295425	1.6044e+06	10.6107	118.553
41	100	1.64543e+06	231921	1.6617e+06	8.02289	119.803
42	79.433	1.66929e+06	233620	1.68556e+06	7.9669	121.088
43	63.096	1.60639e+06	236973	1.62378e+06	-8.39168	122.428
44	50.119	1.70783e+06	205729	1.72018e+06	6.86888	123.793
45	39.811	1.72426e+06	194444	1.73519e+06	6.43405	132.768
46	31.623	1.71142e+06	190115	1.72195e+06	6.33878	134.273
47	25.119	1.77692e+06	232064	1.79201e+06	7.44065	135.803
48	19.953	1.79001e+06	163882	1.79749e+06	5.23108	137.563
49	15.849	1.74766e+06	170649	1.75597e+06	5.5769	139.373
50	12.589	1.83263e+06	171019	1.84059e+06	5.33135	141.213
51	10	1.8468e+06	158600	1.8536e+06	4.90842	143.378
52	7.9433	1.86811e+06	151653	1.87425e+06	4.64109	145.568
53	6.3096	1.89319e+06	162196	1.90012e+06	4.89678	147.754
54	5.0119	1.90398e+06	163741	1.911e+06	4.91533	150.079
55	3.9811	1.92961e+06	170923	1.93716e+06	5.06201	152.349
56	3.1623	1.95007e+06	177014	1.95808e+06	5.18672	154.679
57	2.5119	1.96861e+06	186899	1.97746e+06	5.4234	157.159
58	1.9953	1.9924e+06	198525	2.00227e+06	5.69021	159.714
59	1.5849	2.01505e+06	209567	2.02592e+06	5.93746	162.294
60	1.2589	2.04888e+06	221772	2.06084e+06	6.1777	165.089
61	1	2.0672e+06	243193	2.08145e+06	6.70966	168.279
62	0.79433	2.09632e+06	264530	2.11295e+06	7.192	171.429
63	0.63096	2.12588e+06	289284	2.14547e+06	7.74908	174.829
64	0.50119	2.15663e+06	323732	2.18079e+06	8.53694	178.564
65	0.39811	2.19047e+06	362855	2.22032e+06	9.40574	182.649
66	0.31623	2.23465e+06	405231	2.2711e+06	10.2783	187.309
67	0.25119	2.28049e+06	462126	2.32684e+06	11.4555	192.649
68	0.19953	2.33135e+06	523434	2.38939e+06	12.6542	198.744
69	0.15849	2.39487e+06	591882	2.46692e+06	13.8822	205.925
70	0.12589	2.45445e+06	663672	2.5426e+06	15.1307	214.325
71	0.1	2.53127e+06	772946	2.64665e+06	16.9805	224.425