File: data/Z_measu_on_silk_fibroin/Z_GNP0.5%_SF1.txt
Index	Frequency (Hz)	Z' (Ω)	-Z'' (Ω)	Z (Ω)	-Phase (°)	Time (s)
1	1000000	-2761.6	14645.5	14903.6	100.678	69.9211
2	794330	1977.2	21777.5	21867.1	84.8123	71.2261
3	630960	9459.66	29034.6	30536.8	71.9541	72.5211
4	501190	17511.3	36368.4	40364.6	64.2893	73.9112
5	398110	24731.3	53717.1	59136.9	65.2787	75.2062
6	316230	32946.5	59177.7	67730.9	60.8936	76.4912
7	251190	39275.1	64345.4	75384.8	58.601	77.6862
8	199530	46478.2	71300.3	85111.5	56.9011	79.0062
9	158490	53727.4	79902.8	96286.5	56.0827	80.2963
10	125890	61353.8	90307.9	109178	55.8084	81.4813
11	100000	69360.3	102949	124135	56.0306	82.7763
12	79433	78366.7	118371	141962	56.4938	83.9563
13	63096	88156.3	137327	163188	57.3019	85.2414
14	50119	99792.9	160737	189195	58.166	86.5314
15	39811	114620	189177	221191	58.7888	87.7264
16	31623	133806	218773	256448	58.5492	88.9164
17	25119	150485	254147	295358	59.3695	90.1065
18	19953	170200	299964	344886	60.4294	91.2965
19	15849	195167	354293	404491	61.1513	92.4815
20	12589	225842	418172	475261	61.6279	93.6715
21	10000	256425	493596	556229	62.548	94.9065
22	7943.3	300562	584790	657508	62.7984	96.1016
23	6309.6	355374	690399	776493	62.7635	97.2966
24	5011.9	420924	815291	917538	62.6933	98.4916
25	3981.1	503704	961713	1.08564e+06	62.3564	99.6766
26	3162.3	606571	1.13016e+06	1.28265e+06	61.777	100.857
27	2511.9	733214	1.32332e+06	1.51287e+06	61.0104	102.042
28	1995.3	882861	1.54868e+06	1.78266e+06	60.3138	103.242
29	1584.9	1.07881e+06	1.78935e+06	2.0894e+06	58.914	104.392
30	1258.9	1.2975e+06	2.09054e+06	2.46046e+06	58.1741	105.567
31	1000	1.59432e+06	2.35237e+06	2.84175e+06	55.8725	106.762
32	794.33	1.89503e+06	2.65926e+06	3.2654e+06	54.5257	108.047
33	630.96	2.2952e+06	3.00133e+06	3.77835e+06	52.5938	109.217
34	501.19	2.73569e+06	3.36568e+06	4.33725e+06	50.8951	110.422
35	398.11	3.20123e+06	3.6608e+06	4.86305e+06	48.8315	111.617
36	316.23	3.79107e+06	4.1716e+06	5.63688e+06	47.736	112.817
37	251.19	4.44914e+06	4.35332e+06	6.22465e+06	44.3763	114.042
38	199.53	4.90074e+06	4.94736e+06	6.96373e+06	45.2712	115.237
39	158.49	5.85752e+06	5.32082e+06	7.91339e+06	42.2512	116.457
40	125.89	7.02826e+06	4.93272e+06	8.58651e+06	35.0628	117.727
41	100	6.91791e+06	5.8588e+06	9.06549e+06	40.2614	118.982
42	79.433	8.76221e+06	5.86516e+06	1.0544e+07	33.7971	120.272
43	63.096	2.94808e+06	2.42848e+06	3.81952e+06	39.48	121.612
44	50.119	1.09162e+07	6.77475e+06	1.28476e+07	31.8242	122.947
45	39.811	1.25147e+07	7.0276e+06	1.43528e+07	29.3164	131.942
46	31.623	1.45157e+07	1.17174e+07	1.86548e+07	38.9111	133.442
47	25.119	1.24768e+07	5.59151e+06	1.36724e+07	24.1397	134.882
48	19.953	1.54661e+07	6.34312e+06	1.67163e+07	22.3001	136.642
49	15.849	1.8909e+07	-82853.1	1.89092e+07	-0.25105	138.472
50	12.589	1.9457e+07	5.10761e+06	2.01162e+07	14.7087	140.412
51	10	1.82903e+07	5.86617e+06	1.9208e+07	17.7824	142.582
52	7.9433	2.25795e+07	6.76832e+06	2.35721e+07	16.6864	144.782
53	6.3096	1.94414e+07	4.90457e+06	2.00505e+07	14.1588	147.078
54	5.0119	2.07587e+07	4.94598e+06	2.13398e+07	13.4015	149.388
55	3.9811	2.06677e+07	4.75203e+06	2.1207e+07	12.9487	151.673
56	3.1623	2.2056e+07	4.66824e+06	2.25446e+07	11.9505	154.093
57	2.5119	2.32976e+07	4.64006e+06	2.37552e+07	11.2639	156.483
58	1.9953	2.32821e+07	5.05172e+06	2.38238e+07	12.2422	159.043
59	1.5849	2.43311e+07	5.4312e+06	2.49299e+07	12.5833	161.708
60	1.2589	2.51234e+07	6.03263e+06	2.58375e+07	13.5022	164.508
61	1	2.54758e+07	5.35442e+06	2.60324e+07	11.8695	169.423
62	0.79433	2.62049e+07	5.27205e+06	2.673e+07	11.3752	172.423
63	0.63096	2.69605e+07	5.23561e+06	2.74641e+07	10.9898	175.838
64	0.50119	2.73512e+07	5.47497e+06	2.78938e+07	11.3195	179.493
65	0.39811	2.83974e+07	5.75852e+06	2.89754e+07	11.4632	183.558
66	0.31623	2.91544e+07	5.71856e+06	2.97099e+07	11.0975	188.238
67	0.25119	3.01215e+07	5.59702e+06	3.06371e+07	10.5263	193.508
68	0.19953	3.10567e+07	5.98955e+06	3.1629e+07	10.916	199.573
69	0.15849	3.19517e+07	6.05871e+06	3.25211e+07	10.737	206.664
70	0.12589	3.2956e+07	6.26766e+06	3.35467e+07	10.7681	215.134
71	0.1	3.3736e+07	6.3601e+06	3.43303e+07	10.6764	225.269