File: data/Z_measu_on_silk_fibroin/Z_GNP1%_SF2.txt
Index	Frequency (Hz)	Z' (Ω)	-Z'' (Ω)	Z (Ω)	-Phase (°)	Time (s)
1	1000000	-2970.55	14259.4	14565.5	101.768	69.9451
2	794330	917.616	21356.3	21376	87.5397	71.2501
3	630960	7823.79	29959.4	30964.1	75.3643	72.5351
4	501190	15183.4	36256.9	39307.8	67.2774	73.9351
5	398110	18497.9	57881.2	60765.1	72.2769	75.2352
6	316230	26184.5	66395.2	71371.9	68.4771	76.5452
7	251190	32099.8	74190.2	80836.7	66.6034	78.6902
8	199530	39331.2	85162.7	93806.4	65.2108	79.8903
9	158490	46648.7	98354.4	108856	64.6254	81.1753
10	125890	54587.7	114532	126876	64.5169	82.3653
11	100000	62671.4	133437	147422	64.842	83.6603
12	79433	72833.8	157306	173350	65.1556	84.8454
13	63096	83721.4	186516	204444	65.8261	86.1454
14	50119	96530.5	222556	242588	66.5519	87.4404
15	39811	114660	268671	292115	66.8887	88.6354
16	31623	143349	316945	347855	65.6636	89.8304
17	25119	164070	368992	403824	66.0279	91.0155
18	19953	189775	439105	478359	66.6267	92.2205
19	15849	224061	526251	571965	66.9372	93.4105
20	12589	266121	631543	685323	67.1503	94.6005
21	10000	308407	749322	810307	67.6288	95.8156
22	7943.3	374214	895915	970927	67.3302	97.0056
23	6309.6	455848	1.0661e+06	1.15947e+06	66.8492	98.2006
24	5011.9	559801	1.26945e+06	1.3874e+06	66.2035	99.3856
25	3981.1	696083	1.50225e+06	1.65568e+06	65.1388	100.571
26	3162.3	855554	1.7776e+06	1.97278e+06	64.2986	101.761
27	2511.9	1.07117e+06	2.08808e+06	2.3468e+06	62.8425	102.961
28	1995.3	1.33861e+06	2.43596e+06	2.77953e+06	61.2103	104.156
29	1584.9	1.67753e+06	2.82631e+06	3.28666e+06	59.3091	105.311
30	1258.9	2.18438e+06	3.25626e+06	3.92107e+06	56.1453	106.481
31	1000	2.55619e+06	3.66056e+06	4.46473e+06	55.0732	107.676
32	794.33	3.14456e+06	4.07422e+06	5.14661e+06	52.3384	108.996
33	630.96	3.87799e+06	4.46926e+06	5.91718e+06	49.0517	110.166
34	501.19	4.6153e+06	4.8457e+06	6.69192e+06	46.395	111.361
35	398.11	5.66626e+06	5.13883e+06	7.64945e+06	42.2054	112.541
36	316.23	6.22216e+06	5.25585e+06	8.14489e+06	40.1877	113.736
37	251.19	7.61685e+06	5.57341e+06	9.43818e+06	36.1937	114.956
38	199.53	8.20076e+06	5.397e+06	9.81733e+06	33.3493	116.156
39	158.49	9.33455e+06	5.59015e+06	1.08804e+07	30.916	117.381
40	125.89	1.12312e+07	4.45028e+06	1.20808e+07	21.6156	118.651
41	100	1.11031e+07	6.48966e+06	1.28606e+07	30.3058	119.916
42	79.433	1.19885e+07	4.33345e+06	1.27477e+07	19.8733	121.211
43	63.096	3.8743e+06	1.41804e+06	4.12566e+06	20.1033	122.546
44	50.119	1.33214e+07	4.48678e+06	1.40567e+07	18.6141	123.786
45	39.811	1.33486e+07	4.34705e+06	1.40386e+07	18.0382	132.781
46	31.623	1.43631e+07	1.01794e+06	1.43991e+07	4.05391	134.271
47	25.119	1.65887e+07	6.21484e+06	1.77146e+07	20.5381	135.711
48	19.953	1.54984e+07	4.20636e+06	1.60591e+07	15.1846	137.471
49	15.849	1.88388e+07	4.62697e+06	1.93987e+07	13.7992	139.286
50	12.589	1.81934e+07	7.60987e+06	1.97208e+07	22.6984	141.131
51	10	1.71698e+07	3.94543e+06	1.76173e+07	12.9413	143.341
52	7.9433	1.72209e+07	2.37245e+06	1.73835e+07	7.84404	145.531
53	6.3096	1.78075e+07	5.26496e+06	1.85695e+07	16.4708	147.727
54	5.0119	1.86835e+07	4.34906e+06	1.9183e+07	13.1037	150.047
55	3.9811	1.88937e+07	4.02184e+06	1.9317e+07	12.017	152.337
56	3.1623	1.98749e+07	4.04907e+06	2.02832e+07	11.5152	154.757
57	2.5119	1.99132e+07	4.37064e+06	2.03872e+07	12.3792	157.157
58	1.9953	2.10194e+07	4.91553e+06	2.15865e+07	13.1625	159.717
59	1.5849	2.20791e+07	5.25127e+06	2.2695e+07	13.3786	162.392
60	1.2589	2.3476e+07	5.49053e+06	2.41095e+07	13.1636	165.097
61	1	2.33628e+07	5.24003e+06	2.39432e+07	12.6416	169.942
62	0.79433	2.40395e+07	5.51448e+06	2.46639e+07	12.9197	173.002
63	0.63096	2.51304e+07	5.45497e+06	2.57156e+07	12.247	176.357
64	0.50119	2.51201e+07	5.25429e+06	2.56638e+07	11.814	180.032
65	0.39811	2.6633e+07	5.46724e+06	2.71884e+07	11.6005	184.102
66	0.31623	2.70481e+07	5.78067e+06	2.76589e+07	12.0636	188.692
67	0.25119	2.79942e+07	6.19972e+06	2.86725e+07	12.4874	194.027
68	0.19953	2.83922e+07	7.30826e+06	2.93177e+07	14.4348	200.162
69	0.15849	2.98335e+07	6.77628e+06	3.05934e+07	12.7968	207.353
70	0.12589	3.0845e+07	6.57986e+06	3.1539e+07	12.0419	215.803
71	0.1	3.17837e+07	6.18001e+06	3.23789e+07	11.0033	225.918