File: data/20200619/Z_p19_1.txt
Index	Frequency (Hz)	Z' (Ω)	-Z'' (Ω)	Z (Ω)	-Phase (°)	Time (s)
1	1000000	3436.7	9536.79	10137.1	70.1827	142.211
2	794330	5989.79	10375.8	11980.6	60.0029	143.566
3	630960	8637.91	11595.5	14459.2	53.3163	144.946
4	501190	11462.3	13056.7	17374.2	48.7204	146.426
5	398110	15034.4	16031.4	21978.2	46.8381	151.477
6	316230	18241.3	17112.9	25011.9	43.1719	152.837
7	251190	21379.3	17268.2	27482.1	38.928	158.017
8	199530	24765.2	17585	30373.4	35.3774	159.372
9	158490	28168.6	17563.7	33195.7	31.9444	160.912
10	125890	31350.4	17046.2	35685	28.5343	162.367
11	100000	34330.7	16325.7	38014.9	25.4331	163.767
12	79433	37068.3	15375.4	40130.6	22.528	165.107
13	63096	39498.7	14269.4	41997.2	19.8629	166.422
14	50119	41629.6	13063.9	43631.3	17.4225	169.002
15	39811	43554.5	11778.7	45119.1	15.1329	170.192
16	31623	44933.9	10526.2	46150.3	13.1844	171.612
17	25119	46272.4	9605.58	47258.9	11.7273	172.942
18	19953	47402.3	8734.43	48200.3	10.4403	174.307
19	15849	48472.3	7890.78	49110.4	9.24605	175.732
20	12589	49285.6	7207.06	49809.8	8.31943	177.107
21	10000	50183.2	6570.11	50611.4	7.45888	179.507
22	7943.3	50938.8	6094.26	51302.1	6.82237	180.862
23	6309.6	51635	5698.12	51948.4	6.29733	182.272
24	5011.9	52282.2	5380.56	52558.3	5.87584	183.582
25	3981.1	52896.1	5114.25	53142.7	5.52247	184.897
26	3162.3	53533	4915.25	53758.2	5.24603	186.262
27	2511.9	54134.6	4759.68	54343.5	5.0247	187.682
28	1995.3	54742.3	4648.81	54939.4	4.85401	189.092
29	1584.9	55368.4	4571.23	55556.8	4.71965	190.297
30	1258.9	55942.5	4525.62	56125.3	4.62502	191.507
31	1000	56554	4496.59	56732.5	4.546	192.837
32	794.33	57204.3	4480.58	57379.5	4.4786	194.227
33	630.96	57829.3	4481.49	58002.7	4.43129	195.622
34	501.19	58465.1	4490.01	58637.3	4.39158	197.072
35	398.11	59107.6	4507.74	59279.2	4.36112	198.557
36	316.23	59768.4	4521.15	59939.2	4.32587	200.057
37	251.19	60442.2	4540.46	60612.5	4.29603	201.658
38	199.53	61110.1	4556.69	61279.8	4.26438	203.073
39	158.49	61779.7	4569.02	61948.5	4.2297	204.528
40	125.89	62462.5	4560.84	62628.8	4.17617	205.938
41	100	63114.7	4556.56	63279	4.1293	207.338
42	79.433	63821.9	4543.95	63983.5	4.07243	208.693
43	63.096	64463.3	4498.87	64620.1	3.99217	210.173
44	50.119	65140.2	4485.95	65294.5	3.93951	211.588
45	39.811	65862.7	4459.57	66013.5	3.87359	220.743
46	31.623	66495.5	4415.58	66641.9	3.79911	222.398
47	25.119	67158.9	4359.28	67300.2	3.71386	223.953
48	19.953	67779.8	4330.3	67917.9	3.65553	225.928
49	15.849	68459.6	4276.91	68593.1	3.57482	227.988
50	12.589	69062.8	4215.86	69191.4	3.49322	229.983
51	10	69679.4	4145.1	69802.5	3.40441	232.273
52	7.9433	70301	4083.79	70419.5	3.32458	234.588
53	6.3096	70889.2	4013.63	71002.8	3.24053	236.908
54	5.0119	71427.6	3945.48	71536.5	3.16166	239.378
55	3.9811	71962.2	3910.96	72068.4	3.11082	242.033
56	3.1623	72497.4	3851.73	72599.7	3.04122	244.508
57	2.5119	72919	3846.05	73020.3	3.01922	247.163
58	1.9953	73418.5	3849.42	73519.3	3.00134	250.053
59	1.5849	73889.8	3948.91	73995.2	3.05916	252.958
60	1.2589	74337.4	4077.48	74449.1	3.13959	255.839
61	1	74797.3	4248.56	74917.8	3.25097	261.199
62	0.79433	75275.1	4482.76	75408.5	3.40804	264.379
63	0.63096	75723.9	4801.4	75876	3.62808	267.899
64	0.50119	76226.7	5236.69	76406.3	3.92998	271.894
65	0.39811	76758.3	5815.28	76978.3	4.3325	276.284
66	0.31623	77360.7	6434.78	77627.9	4.75486	281.119
67	0.25119	78004	7308.63	78345.6	5.35273	286.604
68	0.19953	78617.9	8202.06	79044.6	5.95602	292.869
69	0.15849	79452.5	9353.05	80001.1	6.71389	300.269
70	0.12589	80332.2	10514.2	81017.3	7.45671	308.824
71	0.1	81020.9	12204.4	81935	8.56625	319.11