File: data/20200619/Z_p18_3.txt
Index	Frequency (Hz)	Z' (Ω)	-Z'' (Ω)	Z (Ω)	-Phase (°)	Time (s)
1	1000000	3254.61	7421.18	8103.48	66.3199	809.509
2	794330	4987.52	7825.76	9279.97	57.4898	811.575
3	630960	6799.53	8746.5	11078.6	52.1385	814.172
4	501190	8789.35	9723.46	13107.2	47.8885	816.668
5	398110	11126.4	11471	15980.7	45.8738	826.098
6	316230	13559.4	12110.4	18180.2	41.7692	828.269
7	251190	15594.7	12344.3	19889.1	38.3642	836.748
8	199530	17992.3	12616.6	21975	35.039	838.769
9	158490	20345.1	12646.7	23955.5	31.8654	840.77
10	125890	22721.4	12486.1	25926.1	28.7901	842.991
11	100000	24924.5	12045.2	27682.5	25.793	845.167
12	79433	27297.8	11450	29601.9	22.7554	847.118
13	63096	28822.3	10786.7	30774.6	20.5182	849.129
14	50119	30507.6	9978.32	32097.9	18.1117	851.105
15	39811	31969.4	9106.89	33241.2	15.9003	853.161
16	31623	33309.7	8188.94	34301.5	13.8118	855.567
17	25119	34211.9	7492.14	35022.7	12.3523	857.583
18	19953	35164.6	6862.57	35827.9	11.0428	859.679
19	15849	35997	6227.7	36531.7	9.81537	861.745
20	12589	36720.5	5711.19	37162	8.84046	864.041
21	10000	37443	5200.67	37802.5	7.90754	868.799
22	7943.3	38059.6	4816.65	38363.2	7.21276	870.79
23	6309.6	38596.4	4485.76	38856.2	6.6293	872.861
24	5011.9	39143.9	4216.36	39370.3	6.14787	874.962
25	3981.1	39625.2	3997.36	39826.3	5.76047	876.928
26	3162.3	40106.2	3824.81	40288.2	5.44765	879.034
27	2511.9	40580.2	3692.76	40747.8	5.19954	882.03
28	1995.3	41046	3590.77	41202.7	4.99961	884.076
29	1584.9	41514.2	3522.22	41663.3	4.84958	886.382
30	1258.9	41980.2	3470.15	42123.3	4.72542	888.378
31	1000	42422.6	3439.63	42561.8	4.63541	890.314
32	794.33	42901.2	3425.04	43037.7	4.56456	892.47
33	630.96	43380.8	3425.88	43515.9	4.5154	894.516
34	501.19	43887.5	3433.17	44021.6	4.47295	896.507
35	398.11	44352.2	3445.84	44485.9	4.44253	898.523
36	316.23	44851.5	3461.75	44984.9	4.41347	900.564
37	251.19	45341.2	3478.65	45474.4	4.38723	902.53
38	199.53	45872.9	3495.79	46005.9	4.35785	904.586
39	158.49	46376.5	3510.03	46509.1	4.32822	906.872
40	125.89	46908.2	3517.48	47039.9	4.28838	908.948
41	100	47413.9	3529.44	47545.1	4.25719	911.029
42	79.433	47943.3	3528.45	48072.9	4.20917	913.07
43	63.096	48436.4	3534.89	48565.2	4.17405	915.276
44	50.119	48967.5	3506.57	49092.9	4.09597	917.372
45	39.811	49486.3	3508.98	49610.6	4.05594	928.519
46	31.623	49996.6	3493.52	50118.5	3.99706	932.155
47	25.119	50535.3	3480.1	50655	3.93944	934.451
48	19.953	51036.7	3490.21	51155.9	3.91216	937.002
49	15.849	51545.6	3486.37	51663.4	3.8694	939.703
50	12.589	52041.3	3477.22	52157.4	3.82262	942.444
51	10	52522.8	3481.7	52638	3.79255	945.375
52	7.9433	52995.7	3485.28	53110.2	3.76266	948.291
53	6.3096	53476.5	3501.43	53591	3.74616	951.277
54	5.0119	53955.4	3536.83	54071.2	3.75043	954.523
55	3.9811	54429.1	3588.08	54547.2	3.7716	957.574
56	3.1623	54888.1	3642.45	55008.8	3.79666	960.98
57	2.5119	55287	3791.71	55416.9	3.92334	965.521
58	1.9953	55753.3	3979.27	55895.1	4.08244	968.967
59	1.5849	56235.9	4202.56	56392.7	4.27382	972.428
60	1.2589	56584.1	4485.61	56761.6	4.53255	975.91
61	1	57114.1	4864.54	57320.9	4.86826	982.482
62	0.79433	57584.4	5328.4	57830.4	5.28664	986.568
63	0.63096	58131.1	5924.44	58432.2	5.81921	991.234
64	0.50119	58641.5	6604.37	59012.2	6.42574	996.16
65	0.39811	59341.7	7504.41	59814.3	7.20743	1001.36
66	0.31623	60063.7	8639.77	60681.9	8.18548	1006.91
67	0.25119	60956.4	9857.79	61748.4	9.18627	1013.12
68	0.19953	61661.4	11224.2	62674.7	10.3166	1020.42
69	0.15849	62721.8	12889.8	64032.5	11.613	1028.45
70	0.12589	63868.4	14999.7	65606.1	13.2166	1038.27
71	0.1	64957.5	17394.7	67246.2	14.9913	1049.74