File: data/20200619/Z_p19_2.txt
Index	Frequency (Hz)	Z' (Ω)	-Z'' (Ω)	Z (Ω)	-Phase (°)	Time (s)
1	1000000	3336.99	9609.81	10172.7	70.8505	462.772
2	794330	5905.62	10301.4	11874.1	60.175	464.312
3	630960	8507.4	11537.9	14335.2	53.597	465.817
4	501190	11281.7	13166.2	17338.5	49.4078	467.377
5	398110	14997.6	16009.3	21936.8	46.8688	472.567
6	316230	18099.4	17080.9	24886.7	43.3418	474.052
7	251190	21237.5	17234.1	27350.4	39.0591	479.417
8	199530	24604.2	17622.6	30264.2	35.6118	480.737
9	158490	27972	17532	33012.2	32.0783	482.118
10	125890	31230.8	17068.3	35590.5	28.6576	483.593
11	100000	34219.9	16322	37913.1	25.4999	485.073
12	79433	36967.6	15372.3	40036.3	22.5791	486.553
13	63096	39431.2	14301.6	41944.7	19.9356	488.118
14	50119	41634.8	13057.6	43634.3	17.4126	489.518
15	39811	43568.2	11917.6	45168.8	15.2983	490.998
16	31623	44977.2	10470.4	46179.8	13.1047	492.358
17	25119	46204.4	9574.87	47186.1	11.7076	493.718
18	19953	47377.8	8705.4	48170.9	10.4116	495.098
19	15849	48388	7878.54	49025.2	9.24776	496.473
20	12589	49343	7196.73	49865	8.29815	497.863
21	10000	50093.1	6562.51	50521.2	7.46359	500.223
22	7943.3	50860.1	6077.05	51221.9	6.81372	501.503
23	6309.6	51547.3	5685.73	51859.9	6.29435	502.843
24	5011.9	52210.1	5365.25	52485.1	5.86728	504.208
25	3981.1	52855.1	5109.12	53101.4	5.52122	505.523
26	3162.3	53471.7	4908.14	53696.5	5.24446	506.993
27	2511.9	54090.5	4757.38	54299.3	5.02636	508.523
28	1995.3	54670.8	4645.62	54867.8	4.85701	510.028
29	1584.9	55291	4565.83	55479.2	4.72067	511.518
30	1258.9	55867.1	4517.35	56049.5	4.62281	513.028
31	1000	56497.7	4476.16	56674.7	4.52993	514.523
32	794.33	57111.2	4474.56	57286.2	4.47987	515.973
33	630.96	57733.1	4471.58	57906	4.42887	517.198
34	501.19	58384.8	4486.17	58556.9	4.39385	518.558
35	398.11	59023.8	4500.5	59195.1	4.36031	519.853
36	316.23	59717	4523.3	59888.1	4.33163	521.243
37	251.19	60361.4	4540.28	60531.9	4.30159	522.628
38	199.53	61074.9	4553.08	61244.4	4.26347	524.008
39	158.49	61706.3	4557.48	61874.4	4.22405	525.398
40	125.89	62395.3	4564.23	62562	4.18374	526.818
41	100	63063.2	4556.61	63227.6	4.1327	528.113
42	79.433	63745.1	4541.47	63906.7	4.07511	529.553
43	63.096	64438.1	4524.96	64596.8	4.01682	531.058
44	50.119	65109.6	4525.88	65266.8	3.97633	532.553
45	39.811	65763.3	4447.48	65913.5	3.86894	541.729
46	31.623	66421.1	4404.65	66567	3.79396	543.369
47	25.119	67073	4351.79	67214.1	3.71223	544.989
48	19.953	67755.1	4319.96	67892.6	3.64815	546.829
49	15.849	68343.7	4263.79	68476.6	3.56991	548.849
50	12.589	68990.4	4213.27	69118.9	3.49474	550.874
51	10	69628.9	4130.23	69751.2	3.39468	553.229
52	7.9433	70211.6	4095.05	70330.9	3.33796	555.694
53	6.3096	70821.3	4001.42	70934.3	3.23379	558.074
54	5.0119	71346.7	3933.8	71455.1	3.15589	560.769
55	3.9811	71909.3	3890	72014.5	3.09645	563.254
56	3.1623	72353	3835.2	72454.6	3.03422	565.799
57	2.5119	72899.9	3829.73	73000.4	3.00722	568.544
58	1.9953	73358.2	3863.53	73459.9	3.01479	571.319
59	1.5849	73833.2	3931.82	73937.8	3.04828	574.039
60	1.2589	74260.6	4016	74369.1	3.09553	576.874
61	1	74703.8	4242.97	74824.2	3.25075	582.004
62	0.79433	75183.2	4467.52	75315.8	3.40062	585.414
63	0.63096	75653.9	4817.16	75807.2	3.64331	588.869
64	0.50119	76130.4	5240.69	76310.6	3.93793	592.74
65	0.39811	76688.9	5793.95	76907.4	4.32057	596.96
66	0.31623	77275.5	6475.12	77546.3	4.78978	602.17
67	0.25119	77850.3	7200.28	78182.5	5.28419	607.635
68	0.19953	78572.6	8110.02	78990	5.89302	613.825
69	0.15849	79275.4	9240.4	79812.1	6.64844	621.195
70	0.12589	80269.6	10633.7	80970.9	7.54627	629.76
71	0.1	81031.2	11977.9	81911.7	8.40851	639.965