File: data/20200619/Z_p18_2.txt
Index	Frequency (Hz)	Z' (Ω)	-Z'' (Ω)	Z (Ω)	-Phase (°)	Time (s)
1	1000000	3293.77	7383.64	8084.99	65.9588	466.73
2	794330	5008.79	7867.87	9326.92	57.5186	468.225
3	630960	6845.33	8772.05	11126.9	52.0331	469.645
4	501190	8782.24	9777.86	13142.8	48.0706	471.255
5	398110	11265.6	11478.3	16083.1	45.5359	476.45
6	316230	13598.4	12118.2	18214.5	41.7056	478.48
7	251190	15589.2	12351.4	19889.2	38.3899	484.031
8	199530	17994.9	12599.6	21967.4	34.9989	485.366
9	158490	20398.1	12671.5	24013.5	31.849	486.861
10	125890	22714.1	12478	25915.8	28.7821	488.421
11	100000	24907.1	12052.2	27669.8	25.8217	491.046
12	79433	26958.2	11473.3	29298.1	23.0544	493.061
13	63096	28797	10769.9	30745.1	20.5055	494.916
14	50119	30474.8	9972.81	32065.1	18.1206	496.776
15	39811	31961.6	9135.76	33241.6	15.9518	499.676
16	31623	33229.5	8230.71	34233.6	13.9118	502.861
17	25119	34202.2	7523.13	35019.8	12.4053	504.496
18	19953	35164.7	6847.38	35825.2	11.0189	505.896
19	15849	36048.8	6247.03	36586.1	9.83136	507.776
20	12589	36779.7	5729.93	37223.4	8.85496	509.866
21	10000	37424.4	5203.48	37784.4	7.91563	512.821
22	7943.3	38034.6	4810.41	38337.6	7.20819	514.576
23	6309.6	38590.2	4483.55	38849.8	6.62713	516.426
24	5011.9	39113	4216	39339.5	6.15218	517.881
25	3981.1	39619.7	3995.6	39820.7	5.75875	519.346
26	3162.3	40103.1	3821.4	40284.7	5.44324	520.761
27	2511.9	40553.2	3671.71	40719	5.17349	522.591
28	1995.3	41042.4	3589.69	41199.1	4.99854	524.616
29	1584.9	41468.3	3516.01	41617.1	4.84639	525.946
30	1258.9	41933.5	3467.19	42076.6	4.72664	527.571
31	1000	42411.2	3438.52	42550.4	4.63515	529.656
32	794.33	42879.9	3423.39	43016.3	4.56463	531.386
33	630.96	43369.6	3419.95	43504.2	4.50878	532.676
34	501.19	43831.7	3426.05	43965.3	4.46937	534.247
35	398.11	44340.4	3444.55	44474	4.44205	536.072
36	316.23	44839.1	3460.91	44972.5	4.41363	537.632
37	251.19	45329.6	3477.76	45462.8	4.38723	539.112
38	199.53	45848.1	3495.49	45981.2	4.35983	540.537
39	158.49	46366.1	3508.4	46498.6	4.32717	542.212
40	125.89	46896.2	3520.17	47028.1	4.29275	543.977
41	100	47400.2	3526.15	47531.2	4.25446	546.032
42	79.433	47919.3	3527.92	48049	4.21064	547.447
43	63.096	48447.9	3530.68	48576.4	4.16811	549.047
44	50.119	48958.4	3579.77	49089.1	4.18195	551.162
45	39.811	49515.5	3507.81	49639.6	4.05222	560.252
46	31.623	50001.4	3492.29	50123.2	3.99526	561.982
47	25.119	50526	3485.14	50646.1	3.94585	563.712
48	19.953	51024.9	3490.75	51144.1	3.91366	565.712
49	15.849	51525.8	3479.68	51643.2	3.86348	567.662
50	12.589	52046.7	3479.56	52162.8	3.8248	569.672
51	10	52535	3478.89	52650.1	3.78861	572.087
52	7.9433	53009.1	3487.98	53123.8	3.76461	574.392
53	6.3096	53520.5	3503.77	53635.1	3.74558	576.777
54	5.0119	53963.3	3533.2	54078.8	3.74604	580.472
55	3.9811	54404.5	3590.31	54522.9	3.77564	583.322
56	3.1623	54832.9	3653.19	54954.5	3.81164	585.877
57	2.5119	55300.2	3787.41	55429.8	3.91796	588.538
58	1.9953	55767.4	3940.92	55906.5	4.0422	591.143
59	1.5849	56196.8	4183.43	56352.3	4.25738	593.933
60	1.2589	56606.8	4484.31	56784.1	4.52943	596.848
61	1	57081.4	4847.25	57286.9	4.85381	602.423
62	0.79433	57609.7	5308.89	57853.8	5.26509	605.523
63	0.63096	58112.7	5910.39	58412.5	5.80734	609.048
64	0.50119	58690.3	6627.57	59063.3	6.4428	612.958
65	0.39811	59347.9	7545.78	59825.6	7.24599	617.153
66	0.31623	60000.8	8629.95	60618.3	8.18475	622.403
67	0.25119	60852	9713.21	61622.3	9.06906	628.138
68	0.19953	61795.2	11155.5	62794.1	10.233	634.373
69	0.15849	62674.7	12826.5	63973.7	11.566	641.634
70	0.12589	63646.4	15097	65412.5	13.344	650.259
71	0.1	65091.4	17646.8	67441.1	15.1688	661.064