File: data/20200619/Z_p19_3.txt
Index	Frequency (Hz)	Z' (Ω)	-Z'' (Ω)	Z (Ω)	-Phase (°)	Time (s)
1	1000000	3266.23	9498.64	10044.5	71.0238	693.358
2	794330	5955.46	10397	11981.9	60.1957	695.474
3	630960	8501.29	11583.8	14368.6	53.7252	697.51
4	501190	11142.9	12957.2	17089.6	49.3051	699.691
5	398110	15064	16103.5	22051	46.9104	708.126
6	316230	18293.7	16919.8	24918.6	42.7657	710.058
7	251190	21204.1	17186.2	27294.3	39.0253	718.383
8	199530	24591.4	17480.2	30171.1	35.4061	720.289
9	158490	27975.9	17509.8	33003.7	32.042	722.31
10	125890	31304.2	17113.7	35676.8	28.6651	724.301
11	100000	34235.6	16333.3	37932.2	25.5052	726.332
12	79433	36984.8	15367	40050.2	22.5626	728.373
13	63096	39417.5	14267.2	41920.1	19.8977	730.454
14	50119	41577.4	13047.1	43576.5	17.422	732.47
15	39811	43525.7	11855.9	45111.5	15.2371	734.541
16	31623	44995.9	10557.7	46217.9	13.2048	736.502
17	25119	46183	9554.4	47161	11.6885	738.493
18	19953	47366.3	8692.75	48157.4	10.3993	740.529
19	15849	48457.6	7851.86	49089.6	9.20397	742.495
20	12589	49256.1	7180.52	49776.7	8.29412	744.616
21	10000	50059.5	6544.87	50485.5	7.44871	748.138
22	7943.3	50834.5	6074.22	51196.1	6.81397	750.004
23	6309.6	51542.4	5688.44	51855.4	6.29791	752.04
24	5011.9	52190.6	5360.81	52465.2	5.86462	754.076
25	3981.1	52790.1	5102.51	53036.1	5.52086	756.067
26	3162.3	53422.6	4903.58	53647.2	5.2444	758.068
27	2511.9	54016.8	4750.19	54225.3	5.02561	760.059
28	1995.3	54632.1	4633.2	54828.3	4.8475	762.025
29	1584.9	55219	4564.11	55407.3	4.72503	763.882
30	1258.9	55845	4497.12	56025.8	4.60402	765.908
31	1000	56436.5	4480.24	56614.1	4.53894	767.864
32	794.33	57077	4475.38	57252.2	4.48336	769.93
33	630.96	57712.6	4474.52	57885.8	4.43333	771.876
34	501.19	58370.2	4481.8	58542	4.39069	773.857
35	398.11	58997.8	4499.37	59169.1	4.36113	775.828
36	316.23	59680.7	4517.56	59851.4	4.32878	777.764
37	251.19	60338.3	4532.66	60508.3	4.29603	779.81
38	199.53	60962.4	4542.9	61131.5	4.26179	781.796
39	158.49	61661.6	4554.33	61829.6	4.2242	783.837
40	125.89	62336.8	4550.02	62502.6	4.17467	785.933
41	100	63012.8	4551.83	63177	4.13168	787.959
42	79.433	63665	4534.2	63826.3	4.0737	790.02
43	63.096	64349.5	4485.79	64505.6	3.98763	792.171
44	50.119	64945.9	4484.33	65100.5	3.94984	794.292
45	39.811	65709.9	4446.36	65860.2	3.8711	804.083
46	31.623	66364	4411.76	66510.5	3.80332	806.314
47	25.119	67060	4349.16	67200.8	3.71071	808.615
48	19.953	67666.1	4319.32	67803.8	3.6524	811.151
49	15.849	68282.6	4267.41	68415.8	3.57612	813.717
50	12.589	68918.4	4207.28	69046.7	3.49342	816.483
51	10	69540.5	4132.34	69663.2	3.40071	819.445
52	7.9433	70138.7	4069.95	70256.7	3.32098	822.416
53	6.3096	70737.2	4004.86	70850.4	3.2404	825.462
54	5.0119	71317.1	3940.36	71425.9	3.16245	828.558
55	3.9811	71833.9	3870.11	71938.1	3.08387	831.659
56	3.1623	72337.3	3809.76	72437.6	3.01479	834.75
57	2.5119	72865.8	3820.46	72965.9	3.00135	837.991
58	1.9953	73321.7	3837.25	73422	2.99581	841.292
59	1.5849	73684.2	3901.69	73787.4	3.03107	844.738
60	1.2589	74174	4006.22	74282.1	3.0916	848.239
61	1	74645	4219.89	74764.2	3.23564	854.756
62	0.79433	75093.6	4467.67	75226.4	3.40478	858.492
63	0.63096	75574	4790.5	75725.7	3.62703	862.598
64	0.50119	76082.1	5215.95	76260.7	3.92188	867.029
65	0.39811	76573.7	5742.66	76788.8	4.28888	872.066
66	0.31623	77145.1	6452.1	77414.5	4.78085	877.532
67	0.25119	77876.5	7204.64	78209.1	5.28559	883.698
68	0.19953	78465.8	8174.37	78890.4	5.94747	890.564
69	0.15849	79204.9	9202.99	79737.8	6.62761	898.565
70	0.12589	80025.2	10581.9	80721.8	7.53264	907.726
71	0.1	81108.5	12125.4	82009.9	8.50251	918.722