File: data/20200619/Z_p18_1.txt
Index	Frequency (Hz)	Z' (Ω)	-Z'' (Ω)	Z (Ω)	-Phase (°)	Time (s)
1	1000000	3322.31	7252.61	7977.35	65.3882	140.077
2	794330	5023.83	7924.49	9382.77	57.6268	141.447
3	630960	6882.48	8671.53	11070.9	51.5614	142.817
4	501190	8710.69	9731.68	13060.7	48.1687	144.342
5	398110	11235.9	11443.5	16037.4	45.5245	149.518
6	316230	13397.4	12186.2	18110.6	42.2897	150.828
7	251190	15600.4	12313.2	19874.3	38.2836	156.103
8	199530	18077.2	12612.7	22042.4	34.9041	157.483
9	158490	20449.2	12634.2	24037.3	31.7091	158.778
10	125890	22719.1	12463.1	25913.1	28.7479	160.103
11	100000	24886.2	12049.5	27649.8	25.8354	161.483
12	79433	26957.8	11494.2	29305.9	23.0924	162.843
13	63096	28789.3	10758.9	30733.9	20.4913	164.283
14	50119	30467.9	9947.48	32050.7	18.0814	165.808
15	39811	31959.9	9096.09	33229.1	15.8869	167.383
16	31623	33147.1	8224.88	34152.3	13.9355	168.938
17	25119	34229.9	7506.48	35043.3	12.3689	170.488
18	19953	35160.4	6832.23	35818.1	10.9964	171.998
19	15849	35974.3	6225.73	36509	9.81838	173.473
20	12589	36781.6	5701.77	37220.9	8.81167	174.858
21	10000	37404.1	5193	37762.9	7.90414	177.373
22	7943.3	38078.8	4816.85	38382.2	7.20946	178.768
23	6309.6	38643	4488.88	38902.8	6.62594	180.398
24	5011.9	39170.3	4219.78	39397	6.1487	181.798
25	3981.1	39654.1	4002.06	39855.5	5.76303	183.228
26	3162.3	40126.6	3826.79	40308.6	5.4477	184.583
27	2511.9	40601.9	3692.52	40769.5	5.19643	185.958
28	1995.3	41075.3	3594.5	41232.3	5.0012	187.298
29	1584.9	41522.7	3521.45	41671.8	4.84752	188.588
30	1258.9	41987.8	3470.3	42131	4.72477	189.983
31	1000	42462.2	3442.01	42601.5	4.63429	191.498
32	794.33	42919.8	3429.31	43056.6	4.56825	193.083
33	630.96	43409.6	3427.7	43544.7	4.51481	194.553
34	501.19	43874.4	3432.54	44008.5	4.47346	196.073
35	398.11	44384	3448	44517.8	4.44214	197.433
36	316.23	44877.8	3458.87	45010.9	4.40725	198.768
37	251.19	45382.8	3477.85	45515.8	4.38222	200.144
38	199.53	45906.4	3499.84	46039.6	4.35972	201.384
39	158.49	46415.3	3514.99	46548.2	4.3307	202.889
40	125.89	46941	3523.64	47073.1	4.29287	204.369
41	100	47454	3532.56	47585.3	4.25734	205.734
42	79.433	47967.1	3527.51	48096.7	4.20597	207.059
43	63.096	48470.6	3522.06	48598.4	4.15603	208.479
44	50.119	48997	3534.96	49124.3	4.12655	209.984
45	39.811	49529.8	3508.14	49653.9	4.05144	219.099
46	31.623	50036.3	3498.41	50158.4	3.99947	220.779
47	25.119	50572.2	3489.2	50692.4	3.94684	222.449
48	19.953	51054.7	3493.85	51174.1	3.91484	224.454
49	15.849	51571.8	3478.83	51689	3.85911	226.474
50	12.589	52082	3476.78	52197.9	3.81917	228.524
51	10	52581.2	3469.77	52695.6	3.7754	230.859
52	7.9433	53030.6	3478.87	53144.6	3.75329	233.224
53	6.3096	53543.5	3496.82	53657.6	3.73657	235.814
54	5.0119	53964.9	3529.91	54080.3	3.74246	238.274
55	3.9811	54443.1	3581.88	54560.8	3.76414	240.859
56	3.1623	54899	3646.26	55020	3.79987	243.464
57	2.5119	55344.9	3790.3	55474.5	3.91779	245.954
58	1.9953	55760.2	3951.98	55900.1	4.05404	248.569
59	1.5849	56200.5	4134.04	56352.3	4.20703	251.389
60	1.2589	56676.1	4399.71	56846.6	4.43892	254.305
61	1	57107.5	4829.72	57311.3	4.83414	259.71
62	0.79433	57596.4	5283.75	57838.3	5.2415	262.87
63	0.63096	58075.1	5881.33	58372.1	5.78269	266.415
64	0.50119	58673.6	6569.35	59040.2	6.38847	270.26
65	0.39811	59297.3	7506.45	59770.5	7.21471	274.54
66	0.31623	59999.3	8576.95	60609.3	8.13536	279.66
67	0.25119	60757	9678.75	61523.1	9.05132	285.17
68	0.19953	61626.9	11084.3	62615.8	10.1963	291.385
69	0.15849	62542.5	12857.8	63850.5	11.6173	298.67
70	0.12589	63740.9	15115.6	65508.7	13.3407	307.336
71	0.1	64977.2	17158.7	67204.5	14.7926	317.541