File: data/20200619/Z_p27_2.txt
Index	Frequency (Hz)	Z' (Ω)	-Z'' (Ω)	Z (Ω)	-Phase (°)	Time (s)
1	1000000	3339.78	6036.72	6898.99	61.0467	401.097
2	794330	4658.98	6282.21	7821.27	53.4389	402.532
3	630960	6103.11	6759.13	9106.8	47.9197	403.947
4	501190	7494.08	7342.46	10491.6	44.4145	405.417
5	398110	9447.21	8271.89	12556.8	41.2051	410.597
6	316230	10914.5	8540.4	13858.7	38.0425	411.972
7	251190	12482.1	8485.34	15093.2	34.2078	416.127
8	199530	14085.4	8566.93	16486	31.3086	417.457
9	158490	15632.7	8467.9	17778.8	28.4434	418.867
10	125890	17137.5	8222.85	19008.2	25.6324	420.157
11	100000	18547.8	7897.84	20159.2	23.0649	421.462
12	79433	19870.5	7455.2	21223	20.5656	422.857
13	63096	21012.8	7023.7	22155.6	18.4826	424.242
14	50119	22093.1	6496.73	23028.5	16.3866	425.682
15	39811	23052.1	5943.13	23805.9	14.4568	426.992
16	31623	23833.6	5424.84	24443.2	12.8228	428.253
17	25119	24539.3	4978.73	25039.3	11.4689	429.598
18	19953	25160	4537.91	25566	10.2241	430.898
19	15849	25728.7	4131.47	26058.3	9.12258	432.193
20	12589	26204.1	3805.21	26478.9	8.26241	433.503
21	10000	26674.1	3463.79	26898.1	7.39879	435.663
22	7943.3	27090.7	3208.18	27280	6.75372	436.893
23	6309.6	27483.3	2990.19	27645.5	6.20935	438.178
24	5011.9	27824.3	2804.33	27965.2	5.75525	439.473
25	3981.1	28153.3	2650.17	28277.8	5.37759	440.798
26	3162.3	28475.6	2526.98	28587.6	5.07124	442.078
27	2511.9	28773.9	2429.31	28876.3	4.82589	443.348
28	1995.3	29080	2351.82	29174.9	4.6237	444.628
29	1584.9	29377.6	2293.81	29467	4.46461	445.993
30	1258.9	29686.1	2253.72	29771.6	4.34147	447.218
31	1000	29988.7	2226.11	30071.2	4.24538	448.508
32	794.33	30290	2208.41	30370.4	4.16999	449.913
33	630.96	30585.9	2199.47	30664.9	4.11313	451.203
34	501.19	30901	2203.08	30979.4	4.078	452.598
35	398.11	31205.3	2205.81	31283.2	4.04335	453.838
36	316.23	31526.8	2218.59	31604.8	4.02535	455.108
37	251.19	31841.3	2228.32	31919.2	4.00316	456.498
38	199.53	32174.7	2244.02	32252.9	3.98962	457.818
39	158.49	32507.2	2261.76	32585.8	3.98008	459.213
40	125.89	32839.8	2274.97	32918.5	3.96281	460.558
41	100	33164.1	2289.58	33243.1	3.94932	461.883
42	79.433	33490.7	2304.06	33569.9	3.93557	463.498
43	63.096	33842	2324.9	33921.7	3.92998	464.983
44	50.119	34175.5	2333.65	34255.1	3.90634	466.483
45	39.811	34517.9	2339.47	34597.1	3.87733	475.673
46	31.623	34884.5	2345.82	34963.3	3.84708	477.353
47	25.119	35229.2	2350.35	35307.6	3.81689	478.903
48	19.953	35580.3	2361.47	35658.5	3.79717	480.758
49	15.849	35923.3	2367.12	36001.2	3.76999	482.679
50	12.589	36277	2359.73	36353.6	3.72171	484.709
51	10	36609.5	2349.87	36684.8	3.67263	487.039
52	7.9433	36952.2	2349.72	37026.9	3.63842	489.294
53	6.3096	37288.6	2346.26	37362.3	3.6004	491.699
54	5.0119	37591.7	2354.8	37665.4	3.58442	494.154
55	3.9811	37888.7	2381.08	37963.5	3.59597	496.519
56	3.1623	38181.7	2429.63	38258.9	3.64101	499.064
57	2.5119	38489.9	2476.47	38569.5	3.68138	501.614
58	1.9953	38753.1	2583.35	38839.1	3.8138	504.264
59	1.5849	39048.8	2718.99	39143.4	3.98311	507.224
60	1.2589	39335	2860.43	39438.9	4.15922	510.094
61	1	39561.7	3122.91	39684.8	4.51343	515.164
62	0.79433	39849.8	3425.29	39996.7	4.91279	518.254
63	0.63096	40109.1	3774.39	40286.3	5.37588	521.714
64	0.50119	40384.5	4319.99	40614.9	6.10581	525.464
65	0.39811	40637.7	4978.99	40941.6	6.98515	529.669
66	0.31623	41032.9	5829.46	41444.9	8.08579	534.429
67	0.25119	41274.8	6791.2	41829.7	9.34352	539.87
68	0.19953	41676.6	8016.4	42440.6	10.8877	546.035
69	0.15849	42123.8	9662.94	43217.9	12.9198	553.315
70	0.12589	42922.7	11535.5	44445.8	15.0428	561.795
71	0.1	43230.4	13657.1	45336.3	17.5321	572.005