File: data/20200619/Z_p20_3.txt
Index	Frequency (Hz)	Z' (Ω)	-Z'' (Ω)	Z (Ω)	-Phase (°)	Time (s)
1	1000000	3107.51	8319.85	8881.24	69.5191	752.612
2	794330	5149.76	8971.03	10344	60.1423	754.682
3	630960	7135.87	10167.1	12421.3	54.9365	756.897
4	501190	9218.79	11539.7	14770	51.3796	759.022
5	398110	12300.2	14109.8	18718.5	48.9196	767.498
6	316230	14837.8	15132.7	21193.4	45.5639	769.498
7	251190	17594.7	15721.2	23595.1	41.7813	777.843
8	199530	20632.8	16387.2	26348.7	38.4576	779.773
9	158490	23709.8	16759.9	29035.3	35.2556	781.728
10	125890	26875.1	16829.7	31709.7	32.0556	783.688
11	100000	29888	16580.5	34179.1	29.0195	785.828
12	79433	32789.6	16034.6	36500.2	26.0593	787.878
13	63096	35463.5	15327.7	38634.2	23.3745	789.908
14	50119	37952.3	14394.4	40590.4	20.7705	791.933
15	39811	40284.5	13426.1	42462.9	18.4323	794.108
16	31623	42168.1	12239.9	43908.6	16.1861	796.023
17	25119	43751.6	11297	45186.6	14.478	797.963
18	19953	45282.6	10416.4	46465.2	12.9545	800.033
19	15849	46611	9575.67	47584.5	11.6092	801.958
20	12589	47724.7	8707.57	48512.6	10.3401	803.998
21	10000	48892	7991.66	49540.8	9.28321	807.658
22	7943.3	49872.2	7385.23	50416	8.42332	809.608
23	6309.6	50784.6	6853.73	51245	7.68602	811.588
24	5011.9	51599.3	6395.2	51994.1	7.06518	813.588
25	3981.1	52361.6	6010.24	52705.4	6.54795	815.524
26	3162.3	53087.6	5688.58	53391.5	6.11616	817.664
27	2511.9	53775.5	5419.2	54047.9	5.75452	819.594
28	1995.3	54433.2	5204.31	54681.4	5.46139	821.584
29	1584.9	55120.5	5035.61	55350	5.21985	823.504
30	1258.9	55742.2	4896.34	55956.9	5.01992	825.414
31	1000	56412	4798.61	56615.8	4.86208	827.514
32	794.33	57031.9	4719.04	57226.8	4.7301	829.654
33	630.96	57697	4669.1	57885.6	4.62655	831.754
34	501.19	58312.5	4625.05	58495.6	4.53491	833.924
35	398.11	58978.4	4606.91	59158.1	4.46641	835.859
36	316.23	59645.9	4587.39	59822.1	4.39798	837.879
37	251.19	60287.1	4583.72	60461.1	4.34793	839.894
38	199.53	60953.8	4574.74	61125.3	4.29214	841.964
39	158.49	61628	4562.45	61796.6	4.234	843.964
40	125.89	62290.3	4551.17	62456.3	4.17883	846.179
41	100	62952	4539.89	63115.4	4.12485	848.329
42	79.433	63623	4517.37	63783.2	4.06131	850.379
43	63.096	64323.2	4522.96	64482	4.0222	852.489
44	50.119	65017.4	4507.76	65173.5	3.96606	854.584
45	39.811	65650.3	4442.94	65800.4	3.87164	864.424
46	31.623	66257.7	4396.46	66403.4	3.79623	866.919
47	25.119	66948.2	4359.22	67089.9	3.72547	869.345
48	19.953	67583.3	4342.8	67722.7	3.67668	872.07
49	15.849	68228.9	4304.25	68364.6	3.60975	874.865
50	12.589	68865.5	4250.69	68996.5	3.53207	877.625
51	10	69473.8	4213.62	69601.4	3.47077	880.705
52	7.9433	70013.7	4164.39	70137.4	3.40393	883.765
53	6.3096	70635.1	4142.31	70756.5	3.3562	886.845
54	5.0119	71212.8	4108.56	71331.2	3.30197	890.025
55	3.9811	71754.4	4108.23	71871.9	3.27684	893.275
56	3.1623	72275	4095.47	72390.9	3.2432	896.53
57	2.5119	72776.1	4176.35	72895.8	3.28439	899.945
58	1.9953	73318.5	4260.09	73442.1	3.32537	903.425
59	1.5849	73798.7	4394.86	73929.4	3.40805	907.03
60	1.2589	74227	4586.18	74368.6	3.53558	910.765
61	1	74672.1	4926.05	74834.4	3.77428	917.49
62	0.79433	75183.9	5337.75	75373.1	4.06096	921.5
63	0.63096	75670.6	5826.71	75894.6	4.40314	925.741
64	0.50119	76189.8	6538.6	76469.9	4.9051	930.396
65	0.39811	76778.1	7436.07	77137.4	5.53192	935.416
66	0.31623	77463.1	8402.83	77917.5	6.19097	940.941
67	0.25119	78194.5	9699.16	78793.8	7.07079	947.051
68	0.19953	79340.3	11280.7	80138.2	8.09215	954.106
69	0.15849	80280	13059	81335.3	9.23926	962.206
70	0.12589	81596.4	15135.8	82988.4	10.5087	971.616
71	0.1	83149.1	17272.4	84924.1	11.735	982.652