File: data/20200619/Z_p26_3.txt
Index	Frequency (Hz)	Z' (Ω)	-Z'' (Ω)	Z (Ω)	-Phase (°)	Time (s)
1	1000000	3689.81	8784.04	9527.54	67.2148	826.598
2	794330	6093.02	9070.79	10927.2	56.11	828.684
3	630960	8247.7	10031.4	12986.7	50.5733	830.775
4	501190	10602.2	10921.1	15220.9	45.849	832.981
5	398110	13778.4	12786.8	18797.5	42.8625	841.581
6	316230	16187.4	13202.6	20888.7	39.201	843.607
7	251190	18480.4	13283.2	22758.9	35.7076	852.017
8	199530	21032.8	13419.2	24949	32.5383	853.988
9	158490	23458.8	13439.9	27036	29.8091	856.109
10	125890	25812.2	13135.9	28962.4	26.9716	858.045
11	100000	28037.7	12721.7	30788.8	24.4054	860.141
12	79433	30136.7	12229.4	32523.6	22.0872	862.107
13	63096	32169.2	11587.2	34192.4	19.8088	864.203
14	50119	34029.1	10854	35718.2	17.6908	866.339
15	39811	35760.5	9853.72	37093.3	15.4054	868.43
16	31623	37091.6	8984.72	38164.2	13.6165	870.476
17	25119	38250.9	8112.08	39101.6	11.9736	872.568
18	19953	39374.7	7381.65	40060.6	10.6181	874.624
19	15849	40341	6600.85	40877.5	9.29276	876.775
20	12589	41127.2	5838.56	41539.5	8.07992	878.746
21	10000	41823.1	5181.63	42142.9	7.06261	882.518
22	7943.3	42407.3	4606.64	42656.7	6.19965	884.454
23	6309.6	42937.5	4097.87	43132.7	5.45168	886.48
24	5011.9	43383.4	3646.09	43536.4	4.80405	888.556
25	3981.1	43776.1	3258.03	43897.1	4.25638	890.507
26	3162.3	44109	2915.67	44205.3	3.78184	892.548
27	2511.9	44416.1	2620.57	44493.3	3.37656	894.634
28	1995.3	44711.4	2365.57	44773.9	3.02855	896.8
29	1584.9	44976.1	2159.02	45027.9	2.7483	898.731
30	1258.9	45196.8	1979.79	45240.2	2.50817	900.737
31	1000	45391.5	1817.85	45427.9	2.29337	902.758
32	794.33	45609.9	1684.88	45641	2.1156	904.919
33	630.96	45796.6	1569.61	45823.5	1.96296	906.91
34	501.19	45994.9	1481.33	46018.7	1.84466	908.936
35	398.11	46163.3	1399.66	46184.5	1.73666	910.982
36	316.23	46336	1339.65	46355.4	1.65605	912.978
37	251.19	46508.4	1293.92	46526.4	1.59362	915.054
38	199.53	46653.6	1259.38	46670.6	1.54628	917.11
39	158.49	46804.4	1240.42	46820.8	1.51811	919.176
40	125.89	46960.5	1231.37	46976.6	1.50203	921.262
41	100	47083.9	1232.31	47100	1.49924	923.423
42	79.433	47257.1	1257.2	47273.8	1.52391	925.645
43	63.096	47382.5	1292.02	47400.1	1.56194	927.836
44	50.119	47573.3	1279.08	47590.4	1.54011	929.997
45	39.811	47714.6	1395.05	47735	1.6747	940.018
46	31.623	47859.4	1483.32	47882.4	1.77521	942.314
47	25.119	48047.6	1586.6	48073.8	1.8913	944.595
48	19.953	48202.9	1729.33	48233.9	2.05466	947.311
49	15.849	48392.8	1898.41	48430	2.24651	949.932
50	12.589	48612.3	2096.16	48657.5	2.46906	952.668
51	10	48854.2	2316.53	48909.1	2.71477	955.679
52	7.9433	49099.1	2583.52	49167	3.01204	958.705
53	6.3096	49384.9	2889.49	49469.3	3.34854	961.706
54	5.0119	49685.6	3244.79	49791.4	3.73648	964.762
55	3.9811	50018.3	3668.82	50152.7	4.19511	967.953
56	3.1623	50417.1	4181.07	50590.1	4.74068	971.154
57	2.5119	50796	4743.86	51017	5.33541	974.42
58	1.9953	51255.2	5405.3	51539.4	6.02008	977.706
59	1.5849	51743.3	6217.66	52115.6	6.85201	981.253
60	1.2589	52267.4	7166.56	52756.5	7.80733	984.869
61	1	52911.3	8349.96	53566.1	8.96792	991.766
62	0.79433	53592.2	9688.33	54460.9	10.2472	995.642
63	0.63096	54378.8	11364.8	55553.7	11.8046	999.873
64	0.50119	55099	13291.7	56679.5	13.5625	1004.35
65	0.39811	56101.2	15870.9	58302.9	15.7961	1009.22
66	0.31623	57322.3	18633	60274.6	18.0071	1014.69
67	0.25119	58663	22259.4	62744.2	20.779	1020.85
68	0.19953	60930.6	26370.5	66392.3	23.4028	1027.75
69	0.15849	63017.6	31546	70472.5	26.5921	1035.73
70	0.12589	65598.5	37301.5	75462.3	29.624	1045.06
71	0.1	68152.2	43623.8	80918.2	32.623	1055.9