File: data/20200619/Z_p24_3.txt
Index	Frequency (Hz)	Z' (Ω)	-Z'' (Ω)	Z (Ω)	-Phase (°)	Time (s)
1	1000000	3475.68	6826.38	7660.27	63.0169	798.074
2	794330	5001.56	7088.35	8675.27	54.7931	800.454
3	630960	6623.57	7778.79	10216.7	49.5859	803.209
4	501190	8347.62	8518.02	11926.4	45.5789	806.379
5	398110	10423.3	9784.51	14296.2	43.1895	816.185
6	316230	12279.8	10202.6	15965.2	39.7214	818.575
7	251190	13944.5	10477	17441.8	36.9189	828.55
8	199530	15825.1	10850.6	19187.8	34.4368	830.85
9	158490	17729.3	11021.3	20875.8	31.8668	833.355
10	125890	19674.7	11103.4	22591.5	29.4382	835.85
11	100000	21573.7	11070.4	24248.2	27.1644	838.3
12	79433	23347.1	10823.3	25733.8	24.8715	840.5
13	63096	25257.5	10651.8	27411.7	22.8666	842.81
14	50119	27086.7	10286.4	28974.1	20.7947	845.305
15	39811	28705.1	9795.2	30330.3	18.8415	847.745
16	31623	30189.7	9162.18	31549.4	16.8823	850.2
17	25119	31611.1	8537.68	32743.7	15.1141	852.5
18	19953	32836.1	7914.77	33776.6	13.552	854.52
19	15849	33998.6	7242.56	34761.4	12.0257	856.725
20	12589	34988	6606.65	35606.3	10.693	858.805
21	10000	35881.9	5920.79	36367.1	9.36982	862.75
22	7943.3	36644.1	5336.42	37030.6	8.28565	864.785
23	6309.6	37322.1	4795.95	37629	7.32248	866.855
24	5011.9	37894.7	4305.66	38138.6	6.48224	869.071
25	3981.1	38391.3	3862.44	38585.1	5.74503	871.136
26	3162.3	38821.8	3471.48	38976.7	5.10985	873.241
27	2511.9	39212.1	3118.06	39335.9	4.54647	875.306
28	1995.3	39558.9	2821.42	39659.4	4.07953	877.521
29	1584.9	39888.2	2551.06	39969.7	3.65938	879.501
30	1258.9	40158.2	2322.78	40225.4	3.31033	881.731
31	1000	40416.3	2123.75	40472	3.00796	884.116
32	794.33	40639.8	1952.66	40686.7	2.75083	886.216
33	630.96	40869.1	1809.18	40909.1	2.53469	888.376
34	501.19	41071.4	1686.98	41106	2.35207	890.636
35	398.11	41276	1582.35	41306.3	2.1954	892.736
36	316.23	41448	1504.43	41475.3	2.07874	894.726
37	251.19	41639.9	1439.09	41664.8	1.97938	896.836
38	199.53	41796.6	1387.31	41819.6	1.90107	898.866
39	158.49	41976.6	1354.9	41998.5	1.84872	901.086
40	125.89	42129.4	1331.36	42150.5	1.81003	903.271
41	100	42298.2	1327.54	42319.1	1.79765	905.396
42	79.433	42433.9	1335.6	42454.9	1.80278	907.586
43	63.096	42617.4	1342.72	42638.5	1.80459	909.891
44	50.119	42791.9	1374.92	42814	1.8403	912.471
45	39.811	42930.4	1439.25	42954.5	1.92013	922.506
46	31.623	43103.4	1505.19	43129.7	1.99998	925.282
47	25.119	43284.4	1601.63	43314	2.11912	927.702
48	19.953	43476.5	1728.08	43510.9	2.27616	930.382
49	15.849	43658.7	1871.86	43698.8	2.45504	933.147
50	12.589	43895.2	2038.85	43942.5	2.65937	935.962
51	10	44141.7	2245.47	44198.8	2.9121	939.092
52	7.9433	44377.7	2477.51	44446.8	3.19539	942.337
53	6.3096	44672.1	2745.22	44756.3	3.51655	945.467
54	5.0119	44974.6	3061.81	45078.7	3.8946	948.917
55	3.9811	45340.6	3420.49	45469.5	4.31421	952.307
56	3.1623	45720.2	3824.51	45879.9	4.78167	955.587
57	2.5119	46135.5	4304.6	46335.9	5.33046	958.952
58	1.9953	46581.1	4837.63	46831.6	5.92914	962.367
59	1.5849	47049	5495.87	47369	6.66261	965.907
60	1.2589	47592.6	6242.59	48000.3	7.47266	969.527
61	1	48158.7	7102.08	48679.6	8.38908	976.477
62	0.79433	48829.9	8105.77	49498.1	9.42516	980.493
63	0.63096	49393.4	9398.03	50279.6	10.7728	984.803
64	0.50119	50182.8	10985.1	51371	12.3474	989.388
65	0.39811	51063.5	12957.3	52681.8	14.2382	994.468
66	0.31623	51824.7	15272.4	54028.2	16.4199	1000.02
67	0.25119	53092.2	18213.9	56129.5	18.9352	1006.21
68	0.19953	54677.2	21122.1	58615.2	21.1218	1013.26
69	0.15849	56495.4	25252.5	61882.3	24.0839	1021.35
70	0.12589	58678	29937.2	65873.8	27.0304	1030.8
71	0.1	60522.5	35121	69974.6	30.1264	1041.72