File: data/20200619/Z_p20_1.txt
Index	Frequency (Hz)	Z' (Ω)	-Z'' (Ω)	Z (Ω)	-Phase (°)	Time (s)
1	1000000	3090.21	8242.64	8802.87	69.4487	140.848
2	794330	5102.98	9014.77	10358.9	60.4871	142.188
3	630960	7221.61	10230.9	12522.9	54.783	143.583
4	501190	9236.73	11524	14768.8	51.287	145.098
5	398110	12286.2	14181.1	18763.2	49.095	150.224
6	316230	15168.7	15316.1	21556.3	45.2771	151.684
7	251190	17639.3	15773.3	23663.1	41.8034	156.949
8	199530	20659.3	16488.5	26432.5	38.5938	158.249
9	158490	23807.4	16858	29171.7	35.3022	159.619
10	125890	26903.9	16880.6	31761.2	32.1058	161.009
11	100000	29920.7	16609.7	34221.8	29.0358	162.434
12	79433	32831.3	16119.5	36575	26.1501	163.754
13	63096	35574	15377.3	38755.3	23.377	165.149
14	50119	38007.2	14514.5	40684.3	20.9013	166.589
15	39811	40390.1	13471.3	42577.4	18.4451	168.049
16	31623	42338.3	12264.5	44078.9	16.1551	169.454
17	25119	43866.9	11329.9	45306.4	14.4818	170.884
18	19953	45406.4	10456.9	46594.9	12.9689	172.329
19	15849	46747.7	9598.04	47722.8	11.6025	173.809
20	12589	47917.9	8735.85	48707.7	10.3321	175.264
21	10000	49022.1	8020.01	49673.8	9.29127	177.579
22	7943.3	49993.8	7407.55	50539.6	8.42816	178.809
23	6309.6	50904	6879.22	51366.7	7.69639	180.124
24	5011.9	51731.8	6424.68	52129.2	7.07944	181.464
25	3981.1	52500.2	6028.35	52845.2	6.55031	182.804
26	3162.3	53204	5701.47	53508.7	6.11661	184.154
27	2511.9	53908.5	5432.12	54181.4	5.75402	185.564
28	1995.3	54577.7	5218.84	54826.7	5.46214	186.959
29	1584.9	55237.2	5048.17	55467.4	5.2218	188.364
30	1258.9	55873.4	4908.32	56088.5	5.02039	189.814
31	1000	56514.4	4808.63	56718.6	4.8634	191.299
32	794.33	57176.2	4731.39	57371.6	4.73051	192.804
33	630.96	57854.6	4678.38	58043.5	4.62313	194.229
34	501.19	58483.9	4640.55	58667.7	4.53677	195.664
35	398.11	59123.7	4618.14	59303.8	4.46629	197.059
36	316.23	59801.5	4607.01	59978.7	4.40528	198.454
37	251.19	60472.9	4594.32	60647.2	4.34459	199.834
38	199.53	61083.7	4584.79	61255.5	4.29243	201.159
39	158.49	61768	4583.87	61937.9	4.2442	202.465
40	125.89	62466.1	4565.4	62632.7	4.18009	203.895
41	100	63081.4	4548.94	63245.2	4.12459	205.18
42	79.433	63791.4	4535.68	63952.4	4.06698	206.685
43	63.096	64437.1	4507.31	64594.6	4.00126	208.145
44	50.119	65090.5	4473.99	65244.1	3.93203	209.485
45	39.811	65755.2	4451.48	65905.7	3.87289	218.54
46	31.623	66400.4	4421.14	66547.5	3.8093	220.155
47	25.119	67086.5	4373.31	67228.9	3.72978	221.915
48	19.953	67699.8	4354.6	67839.7	3.68032	223.855
49	15.849	68336.5	4311.49	68472.3	3.61012	225.78
50	12.589	68973.2	4277.81	69105.8	3.54901	227.985
51	10	69592.6	4228.95	69721	3.47743	230.295
52	7.9433	70221.9	4191.78	70346.9	3.41612	232.665
53	6.3096	70819.3	4156.41	70941.2	3.35886	234.95
54	5.0119	71367.1	4131.07	71486.5	3.31286	237.595
55	3.9811	71898	4116.5	72015.8	3.27688	240.1
56	3.1623	72462.7	4133.43	72580.5	3.26474	242.775
57	2.5119	72956.7	4188.37	73076.8	3.28568	245.365
58	1.9953	73413.4	4247.1	73536.1	3.31098	247.965
59	1.5849	73881.2	4392.81	74011.6	3.40268	250.77
60	1.2589	74323.3	4643.49	74468.2	3.57502	253.655
61	1	74868.6	4945.64	75031.8	3.77933	258.761
62	0.79433	75328.6	5367.27	75519.6	4.07552	262.066
63	0.63096	75843.5	5876.46	76070.8	4.43051	265.526
64	0.50119	76360.9	6600.67	76645.7	4.94039	269.331
65	0.39811	76934.3	7479.82	77297	5.55304	273.556
66	0.31623	77741.8	8534.08	78208.8	6.26454	278.246
67	0.25119	78401.6	9813.48	79013.4	7.13457	283.631
68	0.19953	79288.1	11242.3	80081.1	8.07019	289.991
69	0.15849	80339.8	13062.7	81394.8	9.23509	297.451
70	0.12589	81762	15178.1	83158.9	10.5166	306.121
71	0.1	83025.7	17244	84797.6	11.7332	316.362