File: data/20200619/Z_p28_2.txt
Index	Frequency (Hz)	Z' (Ω)	-Z'' (Ω)	Z (Ω)	-Phase (°)	Time (s)
1	1000000	3302.22	6278.79	7094.22	62.2586	470.247
2	794330	4735.3	6591.22	8115.86	54.3055	471.817
3	630960	6198.94	7116.82	9438.01	48.9433	473.297
4	501190	7738.06	7772.37	10967.6	45.1267	474.792
5	398110	9679.68	8754.75	13051.5	42.1276	480.362
6	316230	11427.9	9267.66	14713.5	39.0409	481.893
7	251190	12948.7	9178.93	15872	35.3316	487.208
8	199530	14686.5	9327.52	17398.2	32.42	488.763
9	158490	16423.9	9245.18	18847.2	29.3757	490.408
10	125890	18073.5	9049.39	20212.4	26.5971	491.898
11	100000	19618.1	8719.31	21468.5	23.9629	493.318
12	79433	21089.3	8306.13	22666.1	21.4973	494.713
13	63096	22398.3	7801.17	23718	19.2029	496.093
14	50119	23597.1	7257.25	24687.9	17.0952	497.513
15	39811	24701.6	6639.55	25578.3	15.045	498.978
16	31623	25596.3	6033.44	26297.7	13.2634	500.488
17	25119	26359.7	5547.18	26937	11.884	502.008
18	19953	27054.3	5053.21	27522.2	10.5798	503.503
19	15849	27663.4	4599.31	28043.2	9.43963	505.063
20	12589	28251.2	4199.05	28561.5	8.45414	506.633
21	10000	28752.9	3840.99	29008.3	7.60887	509.098
22	7943.3	29214.9	3552.37	29430.1	6.9328	510.533
23	6309.6	29626.4	3306.72	29810.3	6.36866	512.123
24	5011.9	30020.1	3095.22	30179.2	5.88668	513.678
25	3981.1	30376.7	2925.65	30517.3	5.50132	515.328
26	3162.3	30730.7	2789.88	30857.1	5.18738	516.963
27	2511.9	31062.2	2682.97	31177.8	4.93663	518.563
28	1995.3	31403	2603.31	31510.7	4.73897	520.143
29	1584.9	31742.8	2541.04	31844.4	4.57682	521.803
30	1258.9	32060.3	2499.4	32157.6	4.45772	523.103
31	1000	32402.1	2474.09	32496.4	4.3664	524.598
32	794.33	32723.3	2459.62	32815.7	4.2985	526.178
33	630.96	33069.2	2455.49	33160.3	4.24659	527.673
34	501.19	33418.9	2459.38	33509.3	4.20896	529.198
35	398.11	33769.4	2468.76	33859.5	4.18125	530.758
36	316.23	34123.8	2484.07	34214.1	4.16354	532.343
37	251.19	34503	2500.29	34593.5	4.14474	533.878
38	199.53	34848.7	2516.76	34939.5	4.1307	535.213
39	158.49	35220.9	2536.73	35312.1	4.11952	536.609
40	125.89	35583.5	2548.28	35674.7	4.09618	538.049
41	100	35963.8	2561.99	36054.9	4.07475	539.394
42	79.433	36345	2575.5	36436.1	4.05335	540.909
43	63.096	36711.1	2587.87	36802.2	4.03228	542.544
44	50.119	37125.4	2590.59	37215.7	3.99159	544.114
45	39.811	37498.2	2598.44	37588.2	3.96398	553.244
46	31.623	37894.2	2597.09	37983.1	3.92066	554.859
47	25.119	38285.2	2585.26	38372.4	3.86311	556.519
48	19.953	38673.7	2595.96	38760.7	3.8402	558.534
49	15.849	39054.8	2592.06	39140.7	3.79714	560.524
50	12.589	39420.8	2568.89	39504.4	3.72845	562.739
51	10	39790.1	2559.93	39872.4	3.68111	565.084
52	7.9433	40176.7	2544.73	40257.2	3.62419	567.599
53	6.3096	40519.1	2539.1	40598.6	3.58571	570.144
54	5.0119	40845	2536.63	40923.7	3.55373	572.654
55	3.9811	41164.8	2557.59	41244.2	3.55525	575.214
56	3.1623	41506	2581	41586.1	3.55828	577.934
57	2.5119	41769.3	2654.87	41853.5	3.63685	580.804
58	1.9953	42085.7	2746.36	42175.2	3.73361	583.704
59	1.5849	42335	2908.31	42434.8	3.9299	586.449
60	1.2589	42603.1	3109.18	42716.4	4.17406	589.39
61	1	42859.4	3406.43	42994.5	4.54427	594.59
62	0.79433	43176.3	3785.15	43341.9	5.01016	597.85
63	0.63096	43450.7	4247.69	43657.9	5.58342	601.605
64	0.50119	43732	4845.08	43999.6	6.32204	605.555
65	0.39811	44059.9	5683.33	44425	7.35005	609.82
66	0.31623	44406.7	6616.56	44896.9	8.47467	614.67
67	0.25119	44798.9	7994.95	45506.7	10.1187	620.27
68	0.19953	45242.4	9391.38	46206.8	11.7269	626.665
69	0.15849	45847.2	11268.2	47211.7	13.8082	634.175
70	0.12589	46803.9	13562.6	48729.3	16.1603	642.82
71	0.1	47506.4	15824.5	50072.7	18.423	653.071