File: data/20200619/Z_p28_1.txt
Index	Frequency (Hz)	Z' (Ω)	-Z'' (Ω)	Z (Ω)	-Phase (°)	Time (s)
1	1000000	3323.71	6286.1	7110.7	62.1328	142.053
2	794330	4707.1	6522.39	8043.53	54.1827	143.688
3	630960	6182.21	7101.68	9415.61	48.9596	145.363
4	501190	7750.93	7747.89	10959.3	44.9888	147.048
5	398110	9706.11	8822.95	13116.9	42.2712	152.249
6	316230	11311.8	9233.65	14602	39.2242	153.789
7	251190	12955.6	9171.27	15873.3	35.2946	159.059
8	199530	14697.4	9316.98	17401.7	32.3714	160.514
9	158490	16390.9	9245.31	18818.6	29.4252	162.109
10	125890	18080.2	9056.86	20221.8	26.6075	163.459
11	100000	19620.9	8720.06	21471.4	23.9616	164.969
12	79433	21034.2	8254.02	22595.7	21.4255	166.379
13	63096	22410.4	7789.89	23725.7	19.1675	167.804
14	50119	23612.3	7245.4	24698.9	17.0585	169.254
15	39811	24664.3	6651.61	25545.4	15.0928	170.734
16	31623	25591.3	6101.54	26308.6	13.4103	172.209
17	25119	26362.3	5529.43	26936	11.8459	173.669
18	19953	27044.6	5051.16	27512.3	10.5793	175.094
19	15849	27697.6	4630.85	28082.1	9.49166	176.514
20	12589	28244.4	4189.66	28553.4	8.43751	177.904
21	10000	28728.7	3839.21	28984.1	7.61173	180.294
22	7943.3	29192.4	3549.4	29407.3	6.93238	181.589
23	6309.6	29606.4	3302.33	29790	6.36454	182.999
24	5011.9	29991.6	3095.83	30151	5.89337	184.484
25	3981.1	30360.2	2926.45	30500.9	5.50579	185.949
26	3162.3	30700.2	2790.36	30826.8	5.19337	187.429
27	2511.9	31041.5	2683.05	31157.3	4.94004	188.854
28	1995.3	31377.9	2601.26	31485.5	4.73906	190.279
29	1584.9	31721.7	2541.76	31823.4	4.58114	191.639
30	1258.9	32051.3	2498.76	32148.5	4.45784	193.074
31	1000	32376.3	2473.31	32470.6	4.36849	194.534
32	794.33	32707.4	2456.6	32799.6	4.29532	196.009
33	630.96	33033.6	2456.23	33124.8	4.25243	197.284
34	501.19	33382.5	2456.33	33472.8	4.20831	198.724
35	398.11	33747.1	2467.04	33837.1	4.1811	200.279
36	316.23	34087.6	2480.58	34177.7	4.16212	201.88
37	251.19	34458.2	2499.61	34548.7	4.149	203.415
38	199.53	34836.2	2515.3	34926.9	4.1298	204.86
39	158.49	35187.7	2531.61	35278.7	4.11509	206.225
40	125.89	35567.8	2551.26	35659.1	4.10277	207.7
41	100	35941.6	2560.63	36032.7	4.07511	209.195
42	79.433	36304.9	2568.9	36395.6	4.04746	210.81
43	63.096	36707	2577.09	36797.3	4.01598	212.445
44	50.119	37092.4	2566.83	37181.1	3.95861	214.015
45	39.811	37475.1	2589.86	37564.5	3.95336	223.35
46	31.623	37852.4	2585.92	37940.6	3.90815	225.1
47	25.119	38239.2	2583.94	38326.4	3.86577	226.81
48	19.953	38606.3	2586.57	38692.9	3.83301	228.9
49	15.849	39019.2	2574.74	39104	3.77528	231.09
50	12.589	39404.3	2566.87	39487.8	3.72709	233.175
51	10	39756.1	2554.01	39838.1	3.67574	235.525
52	7.9433	40126	2542.19	40206.5	3.62514	238.105
53	6.3096	40472	2529.61	40550.9	3.5765	240.585
54	5.0119	40803.3	2522.32	40881.2	3.53733	243.1
55	3.9811	41137	2542.43	41215.5	3.53661	245.77
56	3.1623	41421.8	2573.39	41501.6	3.55501	248.44
57	2.5119	41722.4	2647.01	41806.3	3.63017	251.21
58	1.9953	42028	2738.48	42117.1	3.72803	253.905
59	1.5849	42285.9	2893.75	42384.8	3.91481	256.746
60	1.2589	42507.7	3074.11	42618.8	4.13636	259.866
61	1	42800.8	3381.7	42934.2	4.51756	265.411
62	0.79433	43097.2	3741.89	43259.3	4.96223	268.546
63	0.63096	43375.3	4195.76	43577.8	5.52512	272.021
64	0.50119	43649.9	4800.13	43913	6.27553	276.036
65	0.39811	43970.1	5564.03	44320.7	7.21194	280.326
66	0.31623	44283.5	6545.47	44764.6	8.40792	285.261
67	0.25119	44732.1	7933	45430.1	10.0565	290.886
68	0.19953	45201.9	9380.15	46164.9	11.7234	297.206
69	0.15849	45843.8	11244.9	47202.8	13.7818	304.536
70	0.12589	46732.9	13244.9	48573.6	15.8236	313.212
71	0.1	47207.5	15900.4	49813.4	18.6145	323.527