File: data/20200619/Z_p24_1.txt
Index	Frequency (Hz)	Z' (Ω)	-Z'' (Ω)	Z (Ω)	-Phase (°)	Time (s)
1	1000000	3483.15	6855.44	7689.56	63.0655	135.366
2	794330	4983.24	7105.48	8678.74	54.9571	142.366
3	630960	6627.85	7809.75	10243.1	49.68	149.012
4	501190	8251.79	8557.85	11888.2	46.0431	153.647
5	398110	10442	9845.68	14351.7	43.3164	161.362
6	316230	12180.5	10440.9	16042.9	40.6026	163.342
7	251190	13928	10488.1	17435.3	36.9804	173.182
8	199530	15822.3	10862.2	19192	34.47	175.732
9	158490	17730.1	11036.3	20884.3	31.9006	177.342
10	125890	19694.5	11121.4	22617.7	29.4533	179.587
11	100000	21584.9	11070.6	24258.3	27.1527	181.552
12	79433	23426.7	10900.6	25838.6	24.9528	183.392
13	63096	25324.3	10672.6	27481.4	22.8524	186.277
14	50119	27039.9	10283.8	28929.4	20.8228	188.462
15	39811	28816.5	9785.33	30432.6	18.7562	190.362
16	31623	30305.9	9190.05	31668.7	16.8695	192.282
17	25119	31660.4	8494.06	32780	15.018	193.847
18	19953	32912.8	7916.2	33851.5	13.5239	195.512
19	15849	34024	7230.43	34783.8	11.9974	197.112
20	12589	35060.1	6595.52	35675.1	10.654	198.672
21	10000	35935.9	5929.16	36421.8	9.36897	201.248
22	7943.3	36701.5	5345.89	37088.8	8.28734	202.898
23	6309.6	37341.6	4799.5	37648.8	7.32405	205.738
24	5011.9	37923.8	4308.16	38167.7	6.48105	208.773
25	3981.1	38424.6	3866.17	38618.7	5.74559	210.638
26	3162.3	38855.3	3468.62	39009.8	5.10127	212.668
27	2511.9	39258.9	3120.61	39382.8	4.54477	214.553
28	1995.3	39595.4	2817.77	39695.5	4.07054	216.908
29	1584.9	39908.9	2553.41	39990.5	3.66086	220.018
30	1258.9	40178.6	2321.01	40245.6	3.30615	222.068
31	1000	40439.6	2122.9	40495.2	3.00502	224.328
32	794.33	40689.4	1953.24	40736.3	2.74829	226.218
33	630.96	40913	1808.59	40952.9	2.53116	228.153
34	501.19	41105.8	1686.29	41140.4	2.34914	230.028
35	398.11	41298.8	1585.75	41329.3	2.19891	231.778
36	316.23	41510.9	1499.5	41538	2.0688	236.218
37	251.19	41669.3	1433.34	41693.9	1.97009	239.828
38	199.53	41836	1383.49	41858.9	1.89404	242.763
39	158.49	42001.1	1350.9	42022.9	1.8422	245.433
40	125.89	42179.6	1326.53	42200.4	1.80134	249.953
41	100	42312.4	1321.49	42333.1	1.78887	252.168
42	79.433	42461.5	1325.33	42482.2	1.78776	254.099
43	63.096	42601.9	1353.64	42623.4	1.81992	256.049
44	50.119	42799.4	1364.31	42821.1	1.82579	258.044
45	39.811	42933.3	1425.62	42957	1.90183	267.604
46	31.623	43126.9	1491.92	43152.7	1.98128	269.619
47	25.119	43299.2	1577.89	43327.9	2.08703	271.514
48	19.953	43486.4	1703.54	43519.8	2.24336	274.059
49	15.849	43661.7	1838.19	43700.4	2.41077	276.684
50	12.589	43865.1	1994.55	43910.4	2.60345	279.169
51	10	44122	2196.76	44176.7	2.85031	281.824
52	7.9433	44362	2423.59	44428.2	3.12708	284.454
53	6.3096	44665.3	2689.13	44746.2	3.4454	287.009
54	5.0119	44948	2989.66	45047.4	3.80534	289.719
55	3.9811	45286.4	3342.84	45409.6	4.22167	292.569
56	3.1623	45675.5	3744.31	45828.7	4.68642	295.529
57	2.5119	46055.2	4199.96	46246.3	5.21063	298.749
58	1.9953	46516.7	4729.09	46756.4	5.805	301.824
59	1.5849	46977.9	5367.91	47283.6	6.51861	304.919
60	1.2589	47468.7	6061.93	47854.2	7.2775	308.605
61	1	48018.1	6943.65	48517.5	8.22822	314.62
62	0.79433	48706.6	7981.96	49356.3	9.30681	318.205
63	0.63096	49336.1	9252.57	50196.2	10.622	322.31
64	0.50119	50007.5	10671.8	51133.5	12.0464	326.855
65	0.39811	50682.2	12645.8	52236	14.0098	331.535
66	0.31623	51580.3	14934.7	53698.9	16.148	336.775
67	0.25119	52966.8	17809.1	55880.7	18.5843	342.605
68	0.19953	54067.5	21005.5	58004.6	21.2314	349.34
69	0.15849	55681.6	24740.4	60930.5	23.9564	357.215
70	0.12589	57653.3	29807.7	64903	27.3397	366.166
71	0.1	60555.1	35061.8	69973.2	30.0711	376.576