File: data/20200619/Z_p28_3.txt
Index	Frequency (Hz)	Z' (Ω)	-Z'' (Ω)	Z (Ω)	-Phase (°)	Time (s)
1	1000000	3248.15	6243.86	7038.2	62.5158	782.759
2	794330	4709.83	6535.27	8055.57	54.2205	784.929
3	630960	6191.62	7089.61	9412.69	48.8681	787.054
4	501190	7679.96	7739.21	10903.1	45.2202	789.309
5	398110	9664.13	8777.18	13055	42.2464	798.074
6	316230	11520	9200.28	14743	38.612	800.074
7	251190	12981.6	9192.63	15906.8	35.3035	806.979
8	199530	14727.9	9312.81	17425.2	32.3063	809.084
9	158490	16461.9	9252.85	18884.1	29.3394	811.189
10	125890	18106.7	9081.09	20256.3	26.6353	813.129
11	100000	19666.1	8758.14	21528.1	24.0055	815.265
12	79433	21012.6	8344.42	22608.8	21.6588	817.255
13	63096	22337.2	7801.42	23660.3	19.2521	819.51
14	50119	23629.6	7272.84	24723.5	17.1076	821.925
15	39811	24726.9	6681.22	25613.7	15.1203	824.105
16	31623	25637.1	6079.48	26348	13.3405	826.17
17	25119	26398.8	5535.8	26973	11.8432	828.255
18	19953	27123.1	5048.34	27588.9	10.5436	830.39
19	15849	27745.7	4621.95	28128	9.45764	832.38
20	12589	28263.9	4241.13	28580.3	8.53384	834.495
21	10000	28787	3847.11	29042.9	7.61194	838.255
22	7943.3	29246.5	3556.6	29462	6.93356	840.16
23	6309.6	29674	3309.99	29858.1	6.36474	842.255
24	5011.9	30053.7	3102.2	30213.3	5.89331	844.26
25	3981.1	30422.5	2932.79	30563.6	5.50641	846.4
26	3162.3	30773.7	2795.84	30900.5	5.19115	848.405
27	2511.9	31123.2	2694.13	31239.5	4.94738	850.565
28	1995.3	31444.2	2606.93	31552.1	4.73937	852.61
29	1584.9	31780.5	2544.08	31882.1	4.57687	854.615
30	1258.9	32100.3	2500.62	32197.6	4.45436	856.56
31	1000	32433.9	2474.79	32528.2	4.36337	858.63
32	794.33	32776	2461.94	32868.4	4.29565	860.695
33	630.96	33129.4	2460.69	33220.7	4.24784	862.725
34	501.19	33464.1	2462.6	33554.6	4.20878	864.76
35	398.11	33799.5	2470.53	33889.7	4.18053	866.72
36	316.23	34180	2485.86	34270.2	4.15972	868.765
37	251.19	34536.6	2500.98	34627.1	4.14186	870.801
38	199.53	34900.7	2517.62	34991.3	4.12598	872.791
39	158.49	35272.1	2537.43	35363.2	4.1147	874.881
40	125.89	35648.7	2552.74	35740	4.09586	876.981
41	100	36020.6	2566.71	36112	4.07582	879.126
42	79.433	36396.9	2576.56	36488	4.04926	881.241
43	63.096	36782.2	2596.86	36873.8	4.03843	883.401
44	50.119	37149.3	2588.64	37239.4	3.98605	885.656
45	39.811	37563.6	2597.1	37653.3	3.95506	895.521
46	31.623	37936.8	2596.43	38025.5	3.91527	897.866
47	25.119	38336.4	2590.66	38423.8	3.86601	900.146
48	19.953	38722.3	2600.85	38809.5	3.8426	902.766
49	15.849	39097.2	2587.22	39182.7	3.78597	905.486
50	12.589	39464.7	2573.75	39548.5	3.73134	908.366
51	10	39852.4	2561.54	39934.6	3.67766	911.386
52	7.9433	40216.2	2547.41	40296.7	3.62444	914.451
53	6.3096	40575.5	2536.34	40654.7	3.57685	917.486
54	5.0119	40912	2538.65	40990.7	3.55074	920.741
55	3.9811	41235.1	2554.06	41314.1	3.54432	923.987
56	3.1623	41550.7	2580.94	41630.8	3.55439	927.332
57	2.5119	41848.3	2655.97	41932.5	3.63151	930.677
58	1.9953	42145.1	2760.79	42235.4	3.74791	934.107
59	1.5849	42410.1	2906.51	42509.6	3.92054	937.607
60	1.2589	42638	3135.9	42753.1	4.20637	941.237
61	1	42940.4	3406.21	43075.3	4.53544	947.852
62	0.79433	43213.3	3759.39	43376.5	4.97199	951.712
63	0.63096	43463	4254.59	43670.8	5.59086	955.972
64	0.50119	43755.9	4832	44021.8	6.3017	960.492
65	0.39811	44046	5645.04	44406.3	7.30335	965.372
66	0.31623	44462.8	6615.59	44952.3	8.46291	970.867
67	0.25119	44864.2	7822.55	45541.1	9.8907	976.972
68	0.19953	45484	9536.54	46473	11.8416	984.048
69	0.15849	45879.4	11210.8	47229.3	13.7314	992.298
70	0.12589	46670.9	13576.8	48605.6	16.22	1001.46
71	0.1	47802.1	16174.2	50464.3	18.6937	1012.42