File: data/20200619/Z_p23_1.txt
Index	Frequency (Hz)	Z' (Ω)	-Z'' (Ω)	Z (Ω)	-Phase (°)	Time (s)
1	1000000	4042.92	7968.45	8935.4	63.0983	142.483
2	794330	6052.11	8247.24	10229.6	53.7275	143.893
3	630960	7974.37	8792.91	11870.4	47.7948	145.388
4	501190	9980	9474.09	13760.8	43.5103	146.903
5	398110	12671.4	10852.8	16683.8	40.5795	152.169
6	316230	14726.6	11262.6	18539.7	37.408	153.584
7	251190	16577.2	11155.9	19981.5	33.9392	158.884
8	199530	18633.3	11314.6	21799.5	31.2672	160.244
9	158490	20642.3	11319.3	23542.1	28.7384	161.674
10	125890	22545.5	11186.9	25168.3	26.3902	163.129
11	100000	24466.4	10925	26794.8	24.0621	164.619
12	79433	26288	10583.4	28338.5	21.9294	166.039
13	63096	27985	10175.6	29777.5	19.9818	167.564
14	50119	29585.3	9649.94	31119.4	18.0649	168.914
15	39811	31149.5	9071.51	32443.5	16.2369	170.469
16	31623	32517.8	8296.58	33559.5	14.3131	171.869
17	25119	33659	7650.92	34517.6	12.8061	173.229
18	19953	34805.7	7037.34	35510	11.4305	174.649
19	15849	35723.6	6379.78	36288.8	10.1255	175.934
20	12589	36529.8	5740.61	36978.1	8.93093	177.254
21	10000	37299.2	5153.54	37653.5	7.86662	179.524
22	7943.3	37935.7	4624.86	38216.6	6.9508	180.894
23	6309.6	38502.2	4138.77	38724	6.13542	182.279
24	5011.9	38970.1	3704.23	39145.8	5.42983	183.699
25	3981.1	39389	3320.13	39528.6	4.81812	185.159
26	3162.3	39764.5	2982.08	39876.2	4.28879	186.494
27	2511.9	40077.1	2692.64	40167.5	3.84373	187.829
28	1995.3	40363.8	2421.91	40436.4	3.43374	189.299
29	1584.9	40636.4	2203.89	40696.1	3.10436	190.579
30	1258.9	40883.2	2018.02	40932.9	2.82586	191.964
31	1000	41115	1850.52	41156.6	2.57706	193.404
32	794.33	41327.6	1707.92	41362.9	2.36648	194.789
33	630.96	41519.4	1591.55	41549.9	2.19523	196.134
34	501.19	41692.4	1491.78	41719	2.04921	197.559
35	398.11	41873.4	1411.87	41897.2	1.93114	198.909
36	316.23	42038.3	1348.53	42059.9	1.83733	200.289
37	251.19	42198.2	1300.47	42218.3	1.76518	201.729
38	199.53	42354.9	1265.14	42373.7	1.71091	203.055
39	158.49	42485.6	1245.81	42503.9	1.67961	204.5
40	125.89	42625.2	1241.73	42643.3	1.66864	205.915
41	100	42766.4	1249.36	42784.6	1.67334	207.37
42	79.433	42928	1272.21	42946.9	1.69751	208.81
43	63.096	43080.2	1320.79	43100.4	1.75608	210.38
44	50.119	43230.6	1375.14	43252.5	1.82193	212.205
45	39.811	43381.4	1449.56	43405.6	1.91379	221.435
46	31.623	43554.1	1548.57	43581.6	2.03629	223.13
47	25.119	43731.8	1663.41	43763.4	2.1783	224.84
48	19.953	43928.8	1823.04	43966.6	2.3764	226.74
49	15.849	44145.3	2003	44190.7	2.5979	228.65
50	12.589	44388.2	2200.23	44442.7	2.83771	230.7
51	10	44655.6	2434.49	44721.9	3.1205	232.985
52	7.9433	44944.6	2706.78	45026	3.44646	235.255
53	6.3096	45259.6	3005.28	45359.3	3.79892	237.77
54	5.0119	45602	3343.02	45724.3	4.19277	240.19
55	3.9811	46004.5	3739.71	46156.3	4.64736	242.705
56	3.1623	46405.2	4148.24	46590.2	5.10819	245.215
57	2.5119	46857.4	4668.1	47089.3	5.68924	247.97
58	1.9953	47304.3	5269.54	47596.9	6.35634	250.775
59	1.5849	47862.4	5960.57	48232.1	7.09881	253.595
60	1.2589	48442.2	6763.43	48912.1	7.94817	256.476
61	1	49004.4	7819.4	49624.3	9.06598	261.621
62	0.79433	49743.8	8987.78	50549.3	10.2418	264.911
63	0.63096	50451.4	10471.8	51526.7	11.7259	268.496
64	0.50119	51385.9	12211.9	52817.1	13.3684	272.371
65	0.39811	52309.1	14432.6	54263.6	15.4247	276.681
66	0.31623	53610.2	16929.4	56219.8	17.5255	281.481
67	0.25119	54818	20033.5	58363.9	20.0751	287.006
68	0.19953	56523.2	23434.1	61188.4	22.5185	293.291
69	0.15849	58493.9	27816.5	64771.1	25.4332	300.596
70	0.12589	61279.2	32950.4	69576.3	28.2673	309.221
71	0.1	63954.4	38071.1	74428.4	30.7647	319.537