File: data/20200619/Z_p21_2.txt
Index	Frequency (Hz)	Z' (Ω)	-Z'' (Ω)	Z (Ω)	-Phase (°)	Time (s)
1	1000000	3817.87	6076.26	7176.15	57.8578	510.9
2	794330	5194.79	6227.79	8109.94	50.1675	512.225
3	630960	6660.58	6534.74	9330.93	44.4536	513.84
4	501190	8112.62	6920.53	10663.4	40.4661	515.32
5	398110	10044	7511.88	12542.4	36.7926	524.39
6	316230	11527	7631.59	13824.4	33.507	525.725
7	251190	12792.7	7311.75	14734.8	29.7503	532.09
8	199530	14180.5	7168.69	15889.5	26.8181	535.746
9	158490	15471.7	6892.81	16937.7	24.0135	538.156
10	125890	16672.2	6506.3	17896.8	21.3181	541.251
11	100000	17719.8	6051.68	18724.7	18.856	542.711
12	79433	18681.3	5546.69	19487.4	16.5367	543.996
13	63096	19495.1	5040.03	20136	14.4952	545.326
14	50119	20193.2	4533.48	20695.8	12.6534	546.826
15	39811	20789.6	4015.54	21173.9	10.9321	548.721
16	31623	21302.5	3505.8	21589	9.34553	550.766
17	25119	21657.9	3116.63	21881	8.1888	552.211
18	19953	22014.9	2758.36	22187	7.14169	554.096
19	15849	22331.1	2420.13	22461.8	6.18528	556.321
20	12589	22560.9	2140.03	22662.2	5.4186	558.081
21	10000	22796.1	1876.84	22873.2	4.70663	560.321
22	7943.3	22988.7	1665.35	23048.9	4.14339	561.531
23	6309.6	23169.7	1484.91	23217.3	3.66698	562.881
24	5011.9	23323.9	1329	23361.7	3.26118	564.236
25	3981.1	23460.5	1197.19	23491	2.92128	565.546
26	3162.3	23578.4	1082.92	23603.2	2.62967	566.871
27	2511.9	23698.9	986.226	23719.4	2.38298	568.651
28	1995.3	23814.8	904.96	23832	2.17618	569.981
29	1584.9	23908	835.006	23922.6	2.00029	571.226
30	1258.9	24007.6	777.911	24020.2	1.85589	572.566
31	1000	24085.5	722.815	24096.3	1.71896	574.101
32	794.33	24183.1	679.429	24192.7	1.60931	575.586
33	630.96	24270.9	642.771	24279.4	1.51702	576.826
34	501.19	24338	609.903	24345.6	1.43552	578.146
35	398.11	24423.9	582.938	24430.9	1.36725	579.416
36	316.23	24490.5	558.958	24496.9	1.30746	580.701
37	251.19	24560.5	542.432	24566.5	1.2652	582.036
38	199.53	24630.8	528.993	24636.5	1.23035	583.761
39	158.49	24687.6	519.697	24693.1	1.20595	585.396
40	125.89	24763.4	516.292	24768.8	1.19439	586.872
41	100	24807.6	515.048	24813	1.18939	588.872
42	79.433	24878.2	519.202	24883.7	1.19557	590.212
43	63.096	24927.2	529.496	24932.8	1.21688	591.642
44	50.119	24949.2	599.763	24956.4	1.37709	609.927
45	39.811	25038.6	576.919	25045.3	1.31993	619.482
46	31.623	25082.1	585.632	25088.9	1.33753	624.282
47	25.119	25164.6	649.257	25173	1.47793	626.732
48	19.953	25232.8	699.491	25242.5	1.58791	628.787
49	15.849	25314.4	754.695	25325.6	1.70765	631.447
50	12.589	25409.2	821.109	25422.4	1.8509	633.892
51	10	25484.9	913	25501.3	2.05175	636.157
52	7.9433	25573.4	1045.2	25594.8	2.34041	638.512
53	6.3096	25731.7	1186.17	25759	2.63934	640.843
54	5.0119	25821.9	1303.44	25854.8	2.88972	643.413
55	3.9811	25970.8	1468.24	26012.3	3.23574	645.863
56	3.1623	26206.8	1677.31	26260.4	3.66211	648.313
57	2.5119	26393	1996.81	26468.4	4.32656	651.343
58	1.9953	26602.6	2229.6	26695.9	4.79084	654.518
59	1.5849	26671.9	2742.31	26812.5	5.87033	657.373
60	1.2589	26962.1	2683.55	27095.4	5.68395	660.248
61	1	27421.5	3213.14	27609.1	6.68323	666.683
62	0.79433	27796.4	3650.86	28035.2	7.48255	669.783
63	0.63096	28146.3	4110.7	28444.9	8.30916	673.263
64	0.50119	28598.9	4701.47	28982.8	9.33554	677.013
65	0.39811	29018.7	5361.74	29509.9	10.4684	681.468
66	0.31623	29569.7	6195.48	30211.7	11.8335	686.268
67	0.25119	30095.8	6996.33	30898.3	13.0871	691.848
68	0.19953	30663.5	8208.82	31743.3	14.987	699.304
69	0.15849	31310.2	9503.4	32720.7	16.8843	706.919
70	0.12589	32205.1	11079	34057.5	18.9839	715.654
71	0.1	32898.7	12905	35339.3	21.4184	727.664