File: data/20200619/Z_p29_1.txt
Index	Frequency (Hz)	Z' (Ω)	-Z'' (Ω)	Z (Ω)	-Phase (°)	Time (s)
1	1000000	3179.68	5603.88	6443.13	60.4291	145.653
2	794330	4428.07	5782.43	7283.15	52.5558	147.138
3	630960	5676.25	6272.03	8459.21	47.8546	148.584
4	501190	7004.6	6725.43	9710.6	43.8352	150.024
5	398110	8604.79	7565.77	11457.9	41.3236	155.079
6	316230	9995	7834.27	12699.4	38.09	156.379
7	251190	11323.7	7958.26	13840.5	35.0995	160.559
8	199530	12779.8	8142.37	15153.2	32.5025	161.909
9	158490	14232.6	8232.93	16442.3	30.0475	163.344
10	125890	15694.9	8176.28	17696.9	27.5173	164.729
11	100000	17100.6	8031.53	18892.8	25.1577	166.144
12	79433	18463.9	7798.77	20043.3	22.8982	167.494
13	63096	19776	7481.21	21143.8	20.7215	168.889
14	50119	20967	7078.54	22129.6	18.6549	170.299
15	39811	22108.4	6595.28	23071.2	16.6106	171.609
16	31623	23077.8	6033.66	23853.5	14.6519	172.884
17	25119	23944.3	5542.13	24577.3	13.0321	174.249
18	19953	24679.1	5052.29	25190.9	11.5697	175.589
19	15849	25352.9	4571.25	25761.7	10.2209	176.944
20	12589	25923.5	4135.96	26251.3	9.06485	178.284
21	10000	26416.7	3711.4	26676.2	7.99738	180.514
22	7943.3	26853.7	3374.61	27064.9	7.16261	181.719
23	6309.6	27245.2	3083.81	27419.2	6.45767	182.999
24	5011.9	27586.4	2832.76	27731.5	5.86297	184.374
25	3981.1	27899.5	2623.19	28022.6	5.37132	185.734
26	3162.3	28200	2451.49	28306.4	4.96835	187.019
27	2511.9	28483.1	2311.99	28576.8	4.64056	188.304
28	1995.3	28749.7	2199.64	28833.7	4.37519	189.644
29	1584.9	29014.4	2112.83	29091.3	4.16492	190.949
30	1258.9	29279.8	2043.86	29351	3.99303	192.254
31	1000	29525	1989.43	29592	3.85483	193.564
32	794.33	29803.2	1950.66	29867	3.74475	194.999
33	630.96	30055.6	1923.74	30117.1	3.66228	196.299
34	501.19	30316.9	1905.1	30376.7	3.59571	197.729
35	398.11	30582.2	1891.53	30640.6	3.53927	198.939
36	316.23	30850.9	1884.17	30908.4	3.4949	200.414
37	251.19	31107.3	1882.58	31164.2	3.46326	201.75
38	199.53	31395.7	1881.36	31452	3.4293	202.975
39	158.49	31666.7	1884.01	31722.7	3.4048	204.39
40	125.89	31942	1886.14	31997.7	3.37932	205.74
41	100	32202	1887.07	32257.2	3.35376	207.09
42	79.433	32491.7	1890.61	32546.6	3.33014	208.52
43	63.096	32748.2	1889.26	32802.6	3.30176	209.95
44	50.119	33026.6	1892.24	33080.8	3.27913	211.5
45	39.811	33324.8	1878.76	33377.7	3.22677	220.71
46	31.623	33608.1	1868.11	33660	3.18152	222.35
47	25.119	33900.5	1859.68	33951.5	3.13992	223.99
48	19.953	34166.8	1854.52	34217.1	3.10687	225.91
49	15.849	34417.5	1838.65	34466.6	3.05794	227.915
50	12.589	34707.8	1820.21	34755.5	3.00206	229.965
51	10	34963.9	1802.87	35010.4	2.95176	232.3
52	7.9433	35222.5	1789.69	35268	2.90876	234.63
53	6.3096	35463.5	1770.59	35507.6	2.85824	237.12
54	5.0119	35696.4	1763.77	35740	2.82871	239.53
55	3.9811	35910	1766.96	35953.4	2.81698	242.005
56	3.1623	36132.3	1788.07	36176.5	2.83307	244.535
57	2.5119	36341.7	1833.98	36387.9	2.88897	247.145
58	1.9953	36551.8	1886.05	36600.4	2.95382	249.89
59	1.5849	36777.6	1988.53	36831.4	3.09491	252.775
60	1.2589	36953	2085.85	37011.8	3.23069	255.7
61	1	37165.9	2272.49	37235.3	3.49897	260.921
62	0.79433	37362.2	2478.37	37444.3	3.79507	264.101
63	0.63096	37548	2749.06	37648.5	4.18742	267.701
64	0.50119	37778.1	3095.41	37904.7	4.68416	271.491
65	0.39811	38011.7	3559.28	38178	5.34938	275.771
66	0.31623	38280.9	4114.62	38501.4	6.13487	280.656
67	0.25119	38482.4	4823.72	38783.6	7.14468	286.201
68	0.19953	38780.7	5627.51	39186.9	8.25662	292.546
69	0.15849	39101.3	6757.45	39680.9	9.80497	299.801
70	0.12589	39670.2	8113.23	40491.4	11.5585	308.486
71	0.1	40050.4	9468.62	41154.5	13.3015	318.707