File: data/20200619/Z_p29_3.txt
Index	Frequency (Hz)	Z' (Ω)	-Z'' (Ω)	Z (Ω)	-Phase (°)	Time (s)
1	1000000	3204.46	5603.84	6455.35	60.2377	742.51
2	794330	4377.32	5785.98	7255.24	52.8911	744.665
3	630960	5672.31	6258.76	8446.73	47.814	746.835
4	501190	6971.85	6787.89	9730.47	44.234	749.16
5	398110	8591.91	7585.09	11461	41.4386	758.475
6	316230	10023.2	7914.41	12771.1	38.295	760.66
7	251190	11338.6	7964.97	13856.5	35.0868	768.021
8	199530	12822	8141.63	15188.5	32.4144	770.176
9	158490	14265.2	8214.69	16461.4	29.9357	772.311
10	125890	15701.2	8177.8	17703.2	27.5123	774.446
11	100000	17108.4	8040.69	18903.7	25.1728	776.641
12	79433	18483.4	7801.51	20062.4	22.8837	778.696
13	63096	19785.7	7481.12	21152.8	20.7119	780.996
14	50119	21008	7082.27	22169.7	18.6301	783.201
15	39811	22150.5	6593.16	23110.9	16.5758	785.466
16	31623	23126.4	6022.91	23897.8	14.5976	787.601
17	25119	23948.8	5533.24	24579.7	13.0096	789.776
18	19953	24699.4	5051.94	25210.8	11.5596	791.871
19	15849	25367.9	4546.62	25772.1	10.1611	794.031
20	12589	25931.8	4131.91	26259	9.05325	796.186
21	10000	26439.8	3714.53	26699.5	7.99713	800.166
22	7943.3	26863.7	3374.97	27074.9	7.16073	802.191
23	6309.6	27238.7	3080.37	27412.4	6.45205	804.311
24	5011.9	27595	2832.26	27740	5.86014	806.431
25	3981.1	27916.3	2623.87	28039.3	5.36951	808.711
26	3162.3	28219.3	2452.66	28325.7	4.96734	810.841
27	2511.9	28502.5	2312.99	28596.2	4.63942	813.086
28	1995.3	28766.1	2200.41	28850.1	4.37421	815.301
29	1584.9	29042.3	2114.53	29119.2	4.16428	817.467
30	1258.9	29280.2	2043.33	29351.4	3.99195	819.497
31	1000	29563.4	1992	29630.4	3.8548	821.627
32	794.33	29807.5	1950.54	29871.2	3.74398	823.872
33	630.96	30078.8	1923.83	30140.3	3.65963	826.162
34	501.19	30337.8	1901.98	30397.4	3.58738	828.407
35	398.11	30602.2	1891.93	30660.6	3.53772	830.482
36	316.23	30865.4	1882.06	30922.7	3.48936	832.642
37	251.19	31131.3	1882.63	31188.1	3.46069	834.882
38	199.53	31406.4	1879.93	31462.6	3.42553	837.002
39	158.49	31685.2	1885.86	31741.3	3.40615	839.147
40	125.89	31974.1	1885.96	32029.7	3.37563	841.312
41	100	32231.1	1887.75	32286.4	3.35193	843.427
42	79.433	32513.1	1887.79	32567.9	3.323	845.712
43	63.096	32808.4	1887.78	32862.6	3.29314	847.997
44	50.119	33055.4	1872.06	33108.4	3.24142	850.347
45	39.811	33357.5	1880.62	33410.5	3.22679	860.337
46	31.623	33629.9	1867.24	33681.7	3.17798	862.867
47	25.119	33917.3	1856.25	33968.1	3.1326	865.397
48	19.953	34174.9	1855.73	34225.2	3.10817	868.157
49	15.849	34457	1844.24	34506.3	3.06372	870.903
50	12.589	34737.2	1823.2	34785.1	3.00444	873.768
51	10	34991.7	1803.85	35038.2	2.95104	876.898
52	7.9433	35248.7	1787.85	35294	2.90362	880.043
53	6.3096	35498.6	1780.22	35543.2	2.87092	883.223
54	5.0119	35723.8	1769.02	35767.6	2.83494	886.428
55	3.9811	35954.5	1773.61	35998.2	2.82408	889.613
56	3.1623	36173.6	1804.53	36218.6	2.85585	893.033
57	2.5119	36398.7	1831.37	36444.8	2.88036	896.548
58	1.9953	36588.8	1895.61	36637.8	2.96576	900.013
59	1.5849	36808.1	1979.5	36861.3	3.07834	903.508
60	1.2589	36993.4	2091.78	37052.5	3.23633	907.108
61	1	37214.7	2277.06	37284.3	3.50139	913.703
62	0.79433	37402.2	2493.24	37485.2	3.8137	917.743
63	0.63096	37626.1	2759.7	37727.2	4.19487	922.013
64	0.50119	37802.5	3094.92	37929	4.68041	926.549
65	0.39811	38026.8	3558.64	38192.9	5.3463	931.559
66	0.31623	38284.7	4101.02	38503.7	6.11415	937.139
67	0.25119	38541.9	4799.27	38839.5	7.09799	943.299
68	0.19953	38959	5762.31	39382.9	8.41345	950.219
69	0.15849	39220.6	6829.48	39810.8	9.87787	958.284
70	0.12589	39729.5	8177.89	40562.5	11.6313	967.529
71	0.1	40290.5	9601.25	41418.7	13.4036	978.515