File: data/20200619/Z_p25_2.txt
Index	Frequency (Hz)	Z' (Ω)	-Z'' (Ω)	Z (Ω)	-Phase (°)	Time (s)
1	1000000	3655.71	8217.98	8994.41	66.0184	429.985
2	794330	5714.45	8590.81	10317.8	56.3689	431.43
3	630960	7720.81	9513.72	12252.4	50.9391	432.89
4	501190	9807.07	10454.8	14334.6	46.8309	434.42
5	398110	12562.3	12349.2	17615.7	44.5099	439.375
6	316230	14871	12953.3	19721.4	41.0575	440.655
7	251190	16976.6	13331.3	21585.4	38.1417	444.69
8	199530	19382.9	13832.4	23812.4	35.5131	445.95
9	158490	21833.7	14162.7	26024.8	32.9699	447.37
10	125890	24288.4	14320.7	28195.9	30.5241	448.7
11	100000	26709.4	14351	30320.7	28.2491	450.08
12	79433	29295.4	14516.1	32694.6	26.3587	451.34
13	63096	31498.3	13959.2	34452.9	23.9017	452.745
14	50119	33812	13613.5	36449.6	21.9309	454.15
15	39811	36043.7	13120.3	38357.4	20.0021	455.56
16	31623	38226.2	12311.7	40160	17.8525	456.83
17	25119	39961.7	11615.9	41615.7	16.2078	458.18
18	19953	41729.2	10851.9	43117.1	14.5772	459.485
19	15849	43306.5	10032.8	44453.5	13.0435	460.765
20	12589	44745.8	9282.43	45698.5	11.7197	462.05
21	10000	46006	8423.77	46770.8	10.376	464.28
22	7943.3	47134.6	7682.98	47756.7	9.25783	465.52
23	6309.6	48166.6	6993.32	48671.7	8.26106	466.82
24	5011.9	49038.8	6340.74	49447	7.36749	468.065
25	3981.1	49805.8	5743.69	50135.9	6.57839	469.345
26	3162.3	50502.5	5202.81	50769.8	5.88191	470.645
27	2511.9	51103.5	4716.99	51320.7	5.27361	471.97
28	1995.3	51639.1	4312.84	51818.9	4.7742	473.25
29	1584.9	52118.2	3918.64	52265.3	4.29984	474.53
30	1258.9	52578.9	3585.88	52701	3.90153	475.835
31	1000	53017	3306.25	53120	3.56846	477.085
32	794.33	53394.5	3057.15	53481.9	3.27695	478.455
33	630.96	53730.8	2853.11	53806.5	3.03956	479.785
34	501.19	54084.7	2676.93	54150.9	2.83355	481.07
35	398.11	54384.4	2536.8	54443.6	2.67066	482.3
36	316.23	54683.7	2425.15	54737.5	2.53933	483.64
37	251.19	54945.4	2342.44	54995.4	2.44117	484.991
38	199.53	55234.5	2292.66	55282	2.37685	486.281
39	158.49	55481.7	2260.87	55527.7	2.33351	487.636
40	125.89	55762.2	2265.7	55808.2	2.32673	489.021
41	100	56011.7	2284.34	56058.2	2.33542	490.391
42	79.433	56266.2	2334.07	56314.6	2.37542	491.806
43	63.096	56560.2	2415.06	56611.7	2.44498	493.251
44	50.119	56835	2539.03	56891.7	2.55791	494.731
45	39.811	57147.1	2683.58	57210.1	2.68858	503.831
46	31.623	57426.3	2870.09	57498	2.86119	505.431
47	25.119	57780.4	3099.02	57863.5	3.07008	506.986
48	19.953	58129.6	3399.22	58228.9	3.34665	508.821
49	15.849	58496.2	3742.88	58615.8	3.66109	510.716
50	12.589	58949.3	4138.58	59094.4	4.0159	512.631
51	10	59419.7	4601.06	59597.6	4.42776	514.921
52	7.9433	59905.8	5139.29	60125.8	4.90337	517.231
53	6.3096	60475.5	5766.62	60749.8	5.44695	519.616
54	5.0119	61131.7	6503.54	61476.6	6.07262	521.936
55	3.9811	61885.3	7329.73	62317.9	6.75468	524.421
56	3.1623	62695.6	8299.7	63242.6	7.54101	526.906
57	2.5119	63640	9403.41	64331	8.40517	529.521
58	1.9953	64684	10661	65556.7	9.35917	532.196
59	1.5849	65850	12070.7	66947.2	10.3874	534.941
60	1.2589	67106.4	13702.2	68491	11.5404	537.746
61	1	68518.6	15657.5	70284.8	12.8719	542.687
62	0.79433	70211.4	17866	72448.9	14.2765	545.817
63	0.63096	71787.5	20429.9	74637.9	15.8858	549.377
64	0.50119	73920	23604.5	77597.3	17.7096	553.162
65	0.39811	76126.1	27380.6	80900.4	19.7823	557.412
66	0.31623	79013.1	31567.9	85085.9	21.778	562.167
67	0.25119	81806.7	36756.7	89684.9	24.1949	567.607
68	0.19953	85326.2	42444.6	95300.1	26.4476	573.902
69	0.15849	89681.3	49486	102428	28.8899	581.157
70	0.12589	95440.4	57077.8	111206	30.8814	589.637
71	0.1	99878.7	65876.7	119647	33.4075	599.808