File: data/20200619/Z_p22_2.txt
Index	Frequency (Hz)	Z' (Ω)	-Z'' (Ω)	Z (Ω)	-Phase (°)	Time (s)
1	1000000	4069.07	6777.96	7905.57	59.022	415.545
2	794330	5696.5	6645.99	8753.25	49.399	418.66
3	630960	7387.42	6920.91	10122.9	43.1326	421.77
4	501190	8960.43	7147.89	11462.2	38.58	424.756
5	398110	11098	7782.01	13554.5	35.0384	433.241
6	316230	12629.6	7792.52	14840.1	31.6749	434.746
7	251190	13939.6	7275.48	15724	27.5614	439.081
8	199530	15316.6	6963.02	16825.1	24.4468	440.926
9	158490	16541.2	6561.78	17795.2	21.6378	443.106
10	125890	17634.4	6085.98	18655	19.0406	444.996
11	100000	18564.1	5550.67	19376.2	16.6467	446.541
12	79433	19385.2	5006.04	20021.2	14.4797	448.021
13	63096	20085.9	4476.18	20578.6	12.5632	449.476
14	50119	20673.8	3953.32	21048.4	10.8256	450.966
15	39811	21119.2	3452.99	21399.7	9.2857	452.356
16	31623	21496.9	3006.48	21706.1	7.96157	453.806
17	25119	21809.4	2653.68	21970.2	6.93742	455.186
18	19953	22088.5	2328.15	22210.8	6.01682	456.501
19	15849	22334.1	2054.88	22428.4	5.25678	457.891
20	12589	22528.5	1818.28	22601.7	4.61435	459.316
21	10000	22722.8	1584.53	22778	3.98896	461.861
22	7943.3	22889.6	1413.62	22933.2	3.53399	463.386
23	6309.6	23027.5	1267.36	23062.3	3.1502	464.851
24	5011.9	23167	1142.55	23195.2	2.82342	466.271
25	3981.1	23292.4	1035.84	23315.4	2.54633	467.596
26	3162.3	23403.4	945.059	23422.4	2.31242	468.976
27	2511.9	23508.5	866.673	23524.5	2.11133	470.381
28	1995.3	23598.2	800.216	23611.7	1.94216	471.816
29	1584.9	23680.7	741.755	23692.3	1.7941	473.386
30	1258.9	23783.9	688.558	23793.8	1.65829	474.951
31	1000	23861.4	646.309	23870.1	1.55153	476.436
32	794.33	23940.8	606.371	23948.5	1.45087	477.976
33	630.96	24029.7	568.7	24036.4	1.35574	479.352
34	501.19	24090.9	536.496	24096.9	1.27575	480.727
35	398.11	24166.9	507.15	24172.2	1.20219	482.097
36	316.23	24227	478.912	24231.7	1.13246	483.447
37	251.19	24307.7	455.764	24311.9	1.07416	484.847
38	199.53	24359.7	432.119	24363.5	1.01627	486.197
39	158.49	24415.1	413.551	24418.6	0.970402	487.727
40	125.89	24472.1	395.411	24475.3	0.925682	489.382
41	100	24514	379.265	24517	0.886372	490.987
42	79.433	24561.5	363.92	24564.2	0.848871	492.547
43	63.096	24605.8	353.708	24608.3	0.82357	494.087
44	50.119	24747.6	384.067	24750.6	0.889123	520.737
45	39.811	24646.2	355.854	24648.7	0.827208	529.962
46	31.623	24684.9	355.878	24687.5	0.825966	531.717
47	25.119	24744.4	334.748	24746.6	0.775065	533.428
48	19.953	24776.3	356.989	24778.9	0.825489	535.448
49	15.849	24816.5	373.445	24819.3	0.862137	537.573
50	12.589	24841.3	426.729	24845	0.98414	539.678
51	10	24918	432.857	24921.7	0.995201	542.003
52	7.9433	24951.7	445.009	24955.7	1.02175	544.503
53	6.3096	24996.5	505.141	25001.6	1.1577	547.153
54	5.0119	25040	579.961	25046.7	1.32681	549.728
55	3.9811	25071.4	589.025	25078.3	1.34585	552.508
56	3.1623	25168.7	753.518	25180	1.71485	555.218
57	2.5119	25194.8	631.671	25202.7	1.43619	557.843
58	1.9953	25373	854.196	25387.4	1.92816	561.248
59	1.5849	25489.3	958.273	25507.3	2.15303	564.078
60	1.2589	25573.7	1535.25	25619.8	3.43547	567.003
61	1	25593.9	1295.29	25626.6	2.89723	572.468
62	0.79433	25699.3	1499.26	25743	3.33876	575.838
63	0.63096	25829	1732.22	25887.1	3.83678	581.228
64	0.50119	25963.3	2007.28	26040.8	4.42088	585.388
65	0.39811	26120.3	2366.1	26227.3	5.176	589.939
66	0.31623	26280.3	2788.61	26427.9	6.057	595.344
67	0.25119	26493.7	3246.6	26691.9	6.98631	602.319
68	0.19953	26770.1	3846.73	27045.1	8.17715	608.834
69	0.15849	26985.9	4522.12	27362.2	9.51285	616.319
70	0.12589	27152.6	5401.81	27684.7	11.2517	625.074
71	0.1	27521.2	6598.21	28301.1	13.4822	635.669