File: data/20200619/Z_p25_3.txt
Index	Frequency (Hz)	Z' (Ω)	-Z'' (Ω)	Z (Ω)	-Phase (°)	Time (s)
1	1000000	3646.65	8116.17	8897.77	65.8053	674.529
2	794330	5662.41	8529.39	10237.8	56.421	676.72
3	630960	7673.42	9479.73	12196.2	51.0114	678.761
4	501190	9752.31	10426.3	14276.4	46.9129	680.877
5	398110	12557.7	12364.4	17623.1	44.5555	689.312
6	316230	14984	13098.7	19902.2	41.1594	691.353
7	251190	16993.8	13345.8	21607.9	38.1437	699.843
8	199530	19414.2	13857.9	23852.8	35.5193	701.889
9	158490	21886.3	14148.1	26061.1	32.8801	703.99
10	125890	24289.5	14314.5	28193.7	30.512	705.936
11	100000	26711.5	14333.1	30314.1	28.2176	707.997
12	79433	29122.4	14216.4	32407.1	26.0198	709.939
13	63096	31510.3	13962.9	34465.3	23.8992	711.9
14	50119	33847.6	13579.7	36470.1	21.8607	714.011
15	39811	36125.4	13048.2	38409.6	19.8594	716.122
16	31623	38137.3	12393.3	40100.5	18.0023	718.138
17	25119	39967.8	11604.5	41618.4	16.1904	720.094
18	19953	41744.5	10856.9	43133.2	14.5784	722.1
19	15849	43269.7	10104.6	44433.9	13.1444	724.036
20	12589	44781.3	9250.62	45726.8	11.6716	726.047
21	10000	46026.3	8431.24	46792.1	10.3805	729.714
22	7943.3	47173.3	7695.91	47796.9	9.26567	731.67
23	6309.6	48164.8	6996.05	48670.3	8.26453	733.691
24	5011.9	49064.2	6345.27	49472.8	7.36893	735.627
25	3981.1	49848.5	5750.7	50179.1	6.58075	737.648
26	3162.3	50512.3	5213.3	50780.6	5.89255	739.624
27	2511.9	51127.9	4731.87	51346.4	5.28764	741.63
28	1995.3	51667.6	4302.65	51846.4	4.76035	743.631
29	1584.9	52174.5	3924.24	52321.9	4.30133	745.612
30	1258.9	52629.9	3604	52753.1	3.9174	747.593
31	1000	53044.4	3314.51	53147.8	3.57551	749.599
32	794.33	53410	3065.06	53497.9	3.28446	751.74
33	630.96	53783	2860.2	53859	3.04414	753.721
34	501.19	54114.7	2692.23	54181.6	2.84814	755.777
35	398.11	54427.5	2548.52	54487.1	2.68086	757.788
36	316.23	54714.1	2434.61	54768.3	2.5478	759.699
37	251.19	54980.9	2353.25	55031.2	2.45083	761.75
38	199.53	55276.3	2306.45	55324.4	2.38932	763.812
39	158.49	55560	2279.29	55606.8	2.34918	765.838
40	125.89	55804	2280.74	55850.6	2.34041	767.879
41	100	56067	2305.07	56114.4	2.35426	769.96
42	79.433	56337.3	2365.89	56387	2.40472	772.081
43	63.096	56602.7	2457.35	56656	2.48588	774.212
44	50.119	56927.3	2538.2	56983.9	2.55293	776.313
45	39.811	57199.3	2728.22	57264.4	2.73075	786.069
46	31.623	57523.8	2920.03	57597.9	2.90596	788.375
47	25.119	57828.2	3148.69	57913.9	3.11662	790.761
48	19.953	58208.5	3463.05	58311.4	3.40474	793.262
49	15.849	58572.1	3802.03	58695.3	3.71397	795.898
50	12.589	59013.7	4227.3	59164.9	4.09725	798.634
51	10	59497.2	4696.68	59682.3	4.51354	801.625
52	7.9433	60039.3	5264.77	60269.7	5.01137	804.676
53	6.3096	60616.5	5911.29	60904	5.56984	807.707
54	5.0119	61299.1	6651.06	61658.8	6.19247	810.958
55	3.9811	62047.1	7508.52	62499.7	6.9	814.049
56	3.1623	62874.6	8496.62	63446.1	7.6961	817.195
57	2.5119	63840.5	9600.26	64558.3	8.552	820.517
58	1.9953	64884	10879.5	65789.8	9.51861	823.918
59	1.5849	66089.6	12334.5	67230.8	10.5716	827.494
60	1.2589	67376.5	14040.5	68823.9	11.7714	831.115
61	1	68880.9	16004.9	70715.9	13.0809	837.587
62	0.79433	70584.2	18277	72912.1	14.5173	841.298
63	0.63096	72281.3	20876.3	75235.6	16.1098	845.414
64	0.50119	74468.4	24047.4	78254.8	17.8963	849.945
65	0.39811	76813.9	27646.8	81637.8	19.7948	854.836
66	0.31623	79591.5	32169	85846.7	22.0074	860.237
67	0.25119	82926.5	37118.2	90854.7	24.1134	866.433
68	0.19953	86327.6	43413.9	96629.2	26.6977	873.25
69	0.15849	90396.2	49832.3	103222	28.8665	881.341
70	0.12589	95466.1	58163.7	111789	31.3523	890.487
71	0.1	101939	67419.7	122217	33.4795	901.463