File: data/20200619/Z_p22_1.txt
Index	Frequency (Hz)	Z' (Ω)	-Z'' (Ω)	Z (Ω)	-Phase (°)	Time (s)
1	1000000	4081.75	6798.71	7929.88	59.0206	58.9189
2	794330	5778.43	6692.42	8841.87	49.1918	60.4539
3	630960	7336.92	6890.27	10065.1	43.2018	61.894
4	501190	8950.73	7248.36	11517.6	39.0008	63.454
5	398110	11065.7	7792.54	13534.1	35.1535	68.6591
6	316230	12610.2	7802.42	14828.8	31.7467	70.0191
7	251190	13946	7287.66	15735.4	27.5898	74.4642
8	199530	15297.7	7005.98	16825.7	24.6066	76.0792
9	158490	16538	6597.8	17805.5	21.7495	77.5243
10	125890	17652.7	6101.63	18677.5	19.0676	78.9293
11	100000	18600.7	5567.47	19416.1	16.6632	80.4793
12	79433	19420	5022.44	20058.9	14.5003	82.5243
13	63096	20101.1	4472.08	20592.5	12.5428	83.9144
14	50119	20676.4	3950.58	21050.4	10.817	85.3644
15	39811	21168.3	3456.2	21448.6	9.27298	86.7244
16	31623	21553.5	3033.18	21765.9	8.01051	88.0495
17	25119	21842.9	2657.64	22004	6.93714	89.4395
18	19953	22132	2331.14	22254.4	6.01273	91.1045
19	15849	22349.1	2057.42	22443.6	5.25973	92.7045
20	12589	22559.2	1808.68	22631.5	4.58388	94.1196
21	10000	22742.2	1585.99	22797.4	3.98924	96.4196
22	7943.3	22917	1416.17	22960.8	3.53613	97.8196
23	6309.6	23072.2	1271.05	23107.2	3.15325	99.3197
24	5011.9	23207.6	1145.33	23235.8	2.82534	100.77
25	3981.1	23324.7	1037.35	23347.7	2.54652	102.135
26	3162.3	23421.5	945.788	23440.6	2.31242	103.56
27	2511.9	23538.5	867.885	23554.5	2.11159	104.98
28	1995.3	23627.2	802.214	23640.8	1.94462	106.42
29	1584.9	23731.6	742.706	23743.2	1.79255	107.87
30	1258.9	23815.3	690.556	23825.3	1.6609	109.67
31	1000	23898.8	649.687	23907.6	1.5572	111.35
32	794.33	23978.2	606.677	23985.9	1.44934	112.875
33	630.96	24050.2	569.634	24056.9	1.35681	114.38
34	501.19	24118.8	536.995	24124.8	1.27545	116.11
35	398.11	24201.6	506.879	24206.9	1.19983	117.445
36	316.23	24259.9	480.346	24264.6	1.13431	118.805
37	251.19	24332.3	454.742	24336.5	1.07067	120.4
38	199.53	24391.8	433.616	24395.6	1.01845	121.86
39	158.49	24442.7	415.022	24446.2	0.972754	123.41
40	125.89	24501.8	394.461	24505	0.922339	124.9
41	100	24539.3	378.66	24542.2	0.884049	126.435
42	79.433	24588.1	363.359	24590.7	0.846648	127.95
43	63.096	24633.5	350.254	24636	0.81461	129.64
44	50.119	24707	609.68	24714.6	1.41356	156.566
45	39.811	24680.1	322.087	24682.2	0.747694	165.636
46	31.623	24751.9	343.492	24754.2	0.795067	167.351
47	25.119	24799.3	326.022	24801.5	0.753189	169.041
48	19.953	24811.1	341.897	24813.5	0.789486	171.066
49	15.849	24853	366.155	24855.7	0.844068	173.141
50	12.589	24858.2	385.737	24861.1	0.889017	175.581
51	10	24919.3	419.253	24922.8	0.96388	178.071
52	7.9433	24985.4	420.412	24989	0.963984	180.866
53	6.3096	25015.9	468.999	25020.3	1.07406	183.586
54	5.0119	25077.7	509.825	25082.9	1.16465	185.986
55	3.9811	25131.3	574.354	25137.9	1.30921	188.571
56	3.1623	25209.9	689.2	25219.3	1.56599	191.121
57	2.5119	25255.5	758.481	25266.9	1.72021	193.876
58	1.9953	25282.2	773.096	25294	1.75149	196.791
59	1.5849	25251.1	900.244	25267.2	2.04182	199.712
60	1.2589	25518.4	1000.68	25538	2.24565	202.732
61	1	25613.1	1296.87	25645.9	2.8986	208.162
62	0.79433	25718.5	1497.69	25762.1	3.33279	211.287
63	0.63096	25842.7	1733.43	25900.8	3.83742	215.072
64	0.50119	25985.8	2024.31	26064.5	4.45437	219.042
65	0.39811	26121	2354.56	26226.9	5.15074	223.457
66	0.31623	26308.1	2801.67	26456.8	6.07878	228.292
67	0.25119	26550.2	3233.18	26746.3	6.94307	233.707
68	0.19953	26754.7	3811.23	27024.8	8.10729	239.947
69	0.15849	26958.2	4515.28	27333.8	9.50832	247.247
70	0.12589	27191.8	5374.06	27717.8	11.1796	256.588
71	0.1	27626	6577.16	28398.1	13.3916	266.753