File: data/20200619/Z_p21_3.txt
Index	Frequency (Hz)	Z' (Ω)	-Z'' (Ω)	Z (Ω)	-Phase (°)	Time (s)
1	1000000	3814.02	6196.83	7276.5	58.3886	875.708
2	794330	5193.31	6244.04	8121.48	50.2489	877.889
3	630960	6657.67	6586.1	9364.9	44.6904	880.05
4	501190	8156.47	6900.89	10684.1	40.2333	882.236
5	398110	10069.3	7572.19	12598.8	36.9433	891.455
6	316230	11501.6	7615.47	13794.3	33.5094	893.556
7	251190	12790	7318.08	14735.6	29.777	900.36
8	199530	14194.9	7182.82	15908.7	26.8401	902.596
9	158490	15485.5	6890.44	16949.3	23.9872	905.382
10	125890	16680.4	6517.12	17908.3	21.3408	908.563
11	100000	17749.7	6061.52	18756.2	18.855	910.714
12	79433	18716.4	5566.9	19526.8	16.5643	912.845
13	63096	19503.4	5043.48	20145	14.4988	914.941
14	50119	20218.2	4520.37	20717.3	12.6029	917.152
15	39811	20817.1	4028.31	21203.2	10.9519	920.143
16	31623	21274.1	3510.97	21561.9	9.3713	923.45
17	25119	21690	3124.07	21913.9	8.19609	925.686
18	19953	22035.1	2758.17	22207.1	7.1347	927.737
19	15849	22320.3	2423.06	22451.5	6.19567	932.223
20	12589	22586.9	2138.03	22687.9	5.40737	934.439
21	10000	22815.5	1875.99	22892.5	4.70054	938.871
22	7943.3	23008.9	1667.97	23069.3	4.14627	942.812
23	6309.6	23196.9	1488.46	23244.6	3.67144	945.033
24	5011.9	23337.5	1331.12	23375.4	3.26449	947.204
25	3981.1	23474.6	1198.25	23505.2	2.92209	949.555
26	3162.3	23609.4	1084.48	23634.3	2.62999	951.646
27	2511.9	23720.5	989.368	23741.1	2.38839	953.777
28	1995.3	23817.5	904.163	23834.7	2.17403	956.233
29	1584.9	23930.4	837.059	23945	2.00333	958.224
30	1258.9	24026.7	777.312	24039.3	1.85298	960.3
31	1000	24109.4	724.68	24120.3	1.72168	963.661
32	794.33	24204.3	681.079	24213.8	1.61181	965.972
33	630.96	24277.2	642.698	24285.7	1.51646	968.408
34	501.19	24357.8	610.758	24365.4	1.43636	970.784
35	398.11	24430.5	583.098	24437.4	1.36726	973.46
36	316.23	24505.7	561.05	24512.1	1.31154	975.922
37	251.19	24581.2	544.157	24587.2	1.26816	978.538
38	199.53	24657.7	529.198	24663.3	1.22948	980.919
39	158.49	24714.6	519.985	24720	1.2053	983.635
40	125.89	24780.1	515.364	24785.5	1.19144	985.776
41	100	24840	514.266	24845.3	1.18604	987.992
42	79.433	24900.5	519.037	24905.9	1.19413	991.808
43	63.096	24960.5	531.069	24966.1	1.21886	994.319
44	50.119	24976.3	701.592	24986.2	1.60903	1034.7
45	39.811	25044.4	566.766	25050.8	1.29641	1046.04
46	31.623	25157.7	570.56	25164.1	1.29921	1052.98
47	25.119	25196.9	632.799	25204.9	1.43863	1057
48	19.953	25254.9	696.027	25264.5	1.57868	1060.04
49	15.849	25312.7	777.137	25324.6	1.75851	1062.79
50	12.589	25455.7	850.747	25469.9	1.91415	1065.6
51	10	25492.7	908.592	25508.9	2.04123	1069.08
52	7.9433	25603.1	1020.01	25623.5	2.28141	1072.64
53	6.3096	25769.5	1168.96	25796	2.59728	1075.82
54	5.0119	25822.1	1327.06	25856.2	2.94199	1079.17
55	3.9811	26020.7	1515.71	26064.8	3.33371	1082.88
56	3.1623	26223.1	1667.77	26276	3.63907	1086.23
57	2.5119	26468.4	2019.98	26545.4	4.36416	1090.03
58	1.9953	26426.1	2046.46	26505.2	4.4282	1093.54
59	1.5849	26863.5	2574.48	26986.6	5.47426	1098.33
60	1.2589	26805.7	2991.24	26972.1	6.36728	1102.26
61	1	27451.6	3213.25	27639	6.67616	1109.64
62	0.79433	27811.3	3644.22	28049.1	7.46514	1113.85
63	0.63096	28207.9	4132.74	28509.1	8.33509	1118.14
64	0.50119	28593.8	4677.97	28974	9.29132	1122.6
65	0.39811	29054.3	5373.8	29547.1	10.4788	1127.49
66	0.31623	29574.5	6094.13	30195.8	11.6434	1133.07
67	0.25119	30085.5	7010.02	30891.3	13.1161	1139.3
68	0.19953	30813.7	8202.13	31886.6	14.9056	1146.25
69	0.15849	31407.8	9553	32828.5	16.9177	1154.25
70	0.12589	32218.4	11117	34082.4	19.0371	1163.44
71	0.1	33031.3	12785.4	35419.4	21.1598	1174.32