File: data/20200619/Z_p26_2.txt
Index	Frequency (Hz)	Z' (Ω)	-Z'' (Ω)	Z (Ω)	-Phase (°)	Time (s)
1	1000000	3760.79	8831.97	9599.34	66.935	469.846
2	794330	6081.94	9074.88	10924.4	56.1702	471.296
3	630960	8261.61	9906.41	12899.3	50.173	472.821
4	501190	10697.6	10777.8	15185.5	45.214	474.401
5	398110	13751.1	12755.5	18756.2	42.849	485.237
6	316230	16267.8	13010.3	20830.5	38.6513	488.677
7	251190	18524.9	13294.9	22801.8	35.6662	495.922
8	199530	21028.1	13413.1	24941.8	32.5324	497.412
9	158490	23378.1	13446.5	26969.3	29.9064	499.592
10	125890	25815.3	13167.7	28979.6	27.025	502.277
11	100000	28037.6	12746.8	30799.1	24.4481	504.477
12	79433	30221	12206.3	32593	21.9939	506.767
13	63096	32150.1	11591.7	34175.9	19.8268	509.712
14	50119	34026.5	10811.5	35702.8	17.627	512.202
15	39811	35744.8	9932.67	37099.1	15.5294	513.617
16	31623	37081.4	8962.09	38149	13.5871	515.092
17	25119	38312.4	8114.88	39162.4	11.959	516.547
18	19953	39388.7	7341.11	40067	10.5574	517.972
19	15849	40271.2	6589.82	40806.9	9.29328	519.507
20	12589	41106.2	5842.65	41519.3	8.08959	520.992
21	10000	41848.6	5186.48	42168.8	7.06489	523.547
22	7943.3	42470.2	4614.97	42720.2	6.20163	524.847
23	6309.6	42953.6	4102.05	43149.1	5.45518	526.367
24	5011.9	43417.9	3655.74	43571.5	4.8129	527.887
25	3981.1	43820.7	3260.47	43941.8	4.25524	529.492
26	3162.3	44135.3	2918.62	44231.7	3.78341	531.092
27	2511.9	44473.6	2628.49	44551.2	3.38237	532.742
28	1995.3	44732.8	2376.82	44795.9	3.04148	534.467
29	1584.9	44985	2160.68	45036.8	2.74987	536.747
30	1258.9	45222.5	1977.45	45265.7	2.50378	538.218
31	1000	45456	1819.35	45492.4	2.292	539.823
32	794.33	45648.1	1684.31	45679.2	2.11313	541.428
33	630.96	45848.1	1572.44	45875.1	1.96428	542.928
34	501.19	46015	1477.15	46038.7	1.83865	544.633
35	398.11	46191.5	1403.97	46212.9	1.74094	548.103
36	316.23	46366.4	1338.46	46385.7	1.6535	551.098
37	251.19	46509.7	1291.55	46527.7	1.59066	553.873
38	199.53	46690.9	1257.93	46707.9	1.54327	557.068
39	158.49	46821.5	1240.69	46837.9	1.51788	560.673
40	125.89	46962.7	1227.97	46978.7	1.49781	565.683
41	100	47112.7	1236.54	47128.9	1.50347	567.078
42	79.433	47252.6	1252.66	47269.2	1.51854	568.453
43	63.096	47424.6	1289.52	47442.2	1.55755	569.963
44	50.119	47598.6	1304.6	47616.5	1.57	571.443
45	39.811	47697.2	1398.02	47717.6	1.67888	580.653
46	31.623	47888.6	1478.72	47911.4	1.76864	582.398
47	25.119	48040.3	1585.62	48066.4	1.89042	584.083
48	19.953	48224.7	1733.73	48255.8	2.05896	586.178
49	15.849	48416.5	1888.83	48453.3	2.23409	588.218
50	12.589	48635.5	2087.04	48680.2	2.45716	590.253
51	10	48850.7	2312.63	48905.4	2.71041	592.904
52	7.9433	49122.4	2582.72	49190.2	3.00968	595.354
53	6.3096	49379.2	2888.3	49463.6	3.34754	597.889
54	5.0119	49688.6	3259.76	49795.4	3.75344	600.264
55	3.9811	50032.5	3674.14	50167.3	4.19998	602.609
56	3.1623	50383	4189.42	50556.9	4.7533	605.074
57	2.5119	50813.3	4745.18	51034.4	5.33507	607.644
58	1.9953	51250.8	5454.86	51540.2	6.07539	610.299
59	1.5849	51765.5	6231.37	52139.2	6.86407	613.054
60	1.2589	52262.8	7173.05	52752.8	7.815	615.934
61	1	52911.2	8352.81	53566.5	8.97094	620.984
62	0.79433	53602.5	9754.93	54482.9	10.3142	624.224
63	0.63096	54355.3	11275.7	55512.5	11.7195	627.799
64	0.50119	55142.7	13323	56729.4	13.5829	631.749
65	0.39811	56274.1	15786.4	58446.4	15.6702	636.279
66	0.31623	57568.9	18750.8	60545.6	18.041	641.364
67	0.25119	58824.9	22448.5	62962.7	20.8876	646.765
68	0.19953	60448.5	26464	65987.6	23.6435	653.03
69	0.15849	62608.3	31611.2	70136	26.7894	660.305
70	0.12589	65615	37181.5	75417.4	29.5386	668.795
71	0.1	67616	43884.5	80608.8	32.9845	678.99