File: data/20200619/Z_p22_3.txt
Index	Frequency (Hz)	Z' (Ω)	-Z'' (Ω)	Z (Ω)	-Phase (°)	Time (s)
1	1000000	4135.03	6777.36	7939.21	58.6116	768.421
2	794330	5749.19	6657.4	8796.26	49.1868	773.417
3	630960	7315.88	6936.1	10081.2	43.4736	777.008
4	501190	9011.62	7213.66	11543.2	38.6767	779.434
5	398110	11103.4	7796.87	13567.5	35.0768	795.419
6	316230	12652	7752.91	14838.5	31.4991	803.81
7	251190	13915.2	7255.19	15693	27.5369	830.65
8	199530	15288.1	6984.28	16808	24.553	836.966
9	158490	16528.3	6561.13	17782.9	21.6513	843.212
10	125890	17618.8	6076.75	18637.3	19.0294	848.088
11	100000	18553.6	5539.1	19362.8	16.6228	850.789
12	79433	19367.8	4997.96	20002.3	14.4698	855.515
13	63096	20060	4459.77	20549.7	12.5342	859.421
14	50119	20636.8	3939.16	21009.3	10.8067	866.172
15	39811	21111.6	3456.39	21392.7	9.29795	870.029
16	31623	21495.8	2998.9	21704	7.9421	872.67
17	25119	21788.5	2652.11	21949.4	6.93993	875.721
18	19953	22063.4	2327.37	22185.8	6.02162	878.767
19	15849	22314.5	2041.84	22407.7	5.22816	881.398
20	12589	22503	1783.48	22573.5	4.53152	884.169
21	10000	22690.5	1581.13	22745.6	3.98607	892.701
22	7943.3	22867.4	1410.64	22910.9	3.52998	897.492
23	6309.6	22996.2	1264.41	23030.9	3.14715	900.968
24	5011.9	23132.1	1139.89	23160.2	2.82111	903.239
25	3981.1	23255.6	1033.5	23278.6	2.54459	905.47
26	3162.3	23368.5	944.531	23387.6	2.31457	907.756
27	2511.9	23472.4	864.67	23488.3	2.10969	910.787
28	1995.3	23574.3	798.54	23587.8	1.94006	913.248
29	1584.9	23664.6	740.041	23676.2	1.79118	919.029
30	1258.9	23753	688.047	23762.9	1.65921	922.756
31	1000	23833	644.062	23841.7	1.54798	925.417
32	794.33	23911.3	605.599	23918.9	1.45081	929.338
33	630.96	23993.3	568.879	24000.1	1.35822	932.494
34	501.19	24052	536.423	24058	1.27763	940.545
35	398.11	24143.5	505.406	24148.7	1.19922	944.031
36	316.23	24196.2	478.928	24200.9	1.13394	946.722
37	251.19	24257.3	454.608	24261.6	1.07366	950.098
38	199.53	24327.2	431.966	24331.1	1.01726	954.004
39	158.49	24386.4	413.169	24389.9	0.970646	960.185
40	125.89	24428.8	394.795	24432	0.925879	963.196
41	100	24474	378.054	24476.9	0.884988	965.847
42	79.433	24525.3	364.503	24528	0.851485	968.218
43	63.096	24567.1	353.327	24569.7	0.823977	971.114
44	50.119	24669.2	355.414	24671.7	0.825416	1016.32
45	39.811	24627.7	343.085	24630.1	0.798128	1034.02
46	31.623	24652.1	354.883	24654.6	0.824754	1041.29
47	25.119	24679.3	329.484	24681.5	0.76489	1046.58
48	19.953	24756.9	342.941	24759.3	0.793628	1051.52
49	15.849	24758	364.023	24760.6	0.842374	1058.27
50	12.589	24802.7	378.016	24805.5	0.873173	1062.04
51	10	24841.6	445.234	24845.5	1.0268	1065.8
52	7.9433	24888.2	419.046	24891.7	0.964607	1070.51
53	6.3096	24948.5	476.681	24953	1.09459	1074.52
54	5.0119	25009.6	515.834	25015	1.18158	1077.92
55	3.9811	25056.3	615.299	25063.8	1.40671	1081.85
56	3.1623	25087.9	706.11	25097.8	1.61219	1095.13
57	2.5119	25248.7	844.213	25262.8	1.91502	1107.48
58	1.9953	25368.2	1018.74	25388.6	2.29966	1119.42
59	1.5849	25252.9	800.719	25265.6	1.81612	1124.85
60	1.2589	25314.7	949.669	25332.5	2.14841	1129.1
61	1	25516.3	1296.65	25549.3	2.90906	1136.29
62	0.79433	25639.1	1504.67	25683.2	3.35864	1143.07
63	0.63096	25782.8	1737.18	25841.3	3.85461	1148.07
64	0.50119	25903.4	2026.25	25982.5	4.47277	1154.46
65	0.39811	26057.2	2352.47	26163.2	5.15873	1159.85
66	0.31623	26255.9	2788.23	26403.6	6.06176	1165.59
67	0.25119	26459.5	3300.04	26664.5	7.10925	1172.03
68	0.19953	26696.2	3813.83	26967.3	8.13027	1179.36
69	0.15849	26958.1	4555.38	27340.3	9.59123	1187.46
70	0.12589	27236.5	5432.3	27773	11.2796	1197.1
71	0.1	27478.1	6405.95	28214.9	13.123	1208.27