File: data/20200619/Z_p27_3.txt
Index	Frequency (Hz)	Z' (Ω)	-Z'' (Ω)	Z (Ω)	-Phase (°)	Time (s)
1	1000000	3427.27	6040.44	6945.01	60.43	719.434
2	794330	4672.85	6229.84	7787.58	53.1273	721.495
3	630960	6102.05	6716.87	9074.77	47.7459	723.566
4	501190	7568.73	7326.51	10533.9	44.0684	725.687
5	398110	9438.1	8154.2	12472.7	40.8259	734.132
6	316230	11015.9	8523.45	13928.3	37.7307	736.068
7	251190	12433.3	8440.47	15027.6	34.171	744.468
8	199530	14057.2	8510.94	16432.9	31.1929	746.569
9	158490	15610.9	8400.8	17727.7	28.2864	748.565
10	125890	17116.3	8195.88	18977.4	25.5867	750.516
11	100000	18488.5	7866.1	20092.3	23.0478	752.567
12	79433	19804.8	7450.99	21160	20.6174	754.503
13	63096	20950.6	6985.37	22084.5	18.4394	756.664
14	50119	22008.5	6470.27	22939.9	16.3828	758.71
15	39811	22965.6	5943.09	23722.2	14.5088	760.736
16	31623	23770.1	5364.87	24368	12.7184	762.718
17	25119	24420.5	4923.54	24911.9	11.3989	764.654
18	19953	25062.1	4496.54	25462.3	10.1716	766.675
19	15849	25630.6	4089.99	25954.9	9.06649	768.611
20	12589	26113.2	3750.3	26381.2	8.17276	770.677
21	10000	26547.8	3431.14	26768.6	7.36429	774.139
22	7943.3	26959.9	3176.98	27146.4	6.72079	776.02
23	6309.6	27340.3	2960.64	27500.2	6.18038	778.061
24	5011.9	27688.7	2779.32	27827.8	5.732	779.982
25	3981.1	28017.3	2626.69	28140.1	5.35597	782.013
26	3162.3	28341.3	2507.32	28452	5.05573	783.964
27	2511.9	28649.6	2406.69	28750.5	4.80181	785.89
28	1995.3	28948.3	2330.98	29041.9	4.60367	787.931
29	1584.9	29242.5	2276.74	29331	4.45192	789.957
30	1258.9	29533.6	2240.09	29618.4	4.33751	791.853
31	1000	29824.5	2208.85	29906.1	4.2357	793.804
32	794.33	30122.7	2195.22	30202.6	4.16812	795.86
33	630.96	30436.9	2187.35	30515.4	4.1105	797.801
34	501.19	30742.5	2187.75	30820.2	4.07051	799.792
35	398.11	31048.6	2194.49	31126.1	4.04289	801.733
36	316.23	31365.1	2204.28	31442.5	4.02003	803.654
37	251.19	31702.2	2218.46	31779.8	4.00292	805.72
38	199.53	32018	2234.33	32095.8	3.99183	807.716
39	158.49	32336.8	2248.24	32414.9	3.97713	809.837
40	125.89	32669.7	2262.2	32747.9	3.96111	811.943
41	100	32986.5	2277.3	33065	3.94928	813.939
42	79.433	33327.7	2293.8	33406.5	3.93721	816.091
43	63.096	33660.7	2298.18	33739.1	3.90579	818.162
44	50.119	34026.7	2321.72	34105.8	3.90338	820.273
45	39.811	34359.5	2326.89	34438.2	3.87426	830.064
46	31.623	34709.9	2332.25	34788.2	3.84408	832.325
47	25.119	35052.4	2329.72	35129.7	3.80252	834.621
48	19.953	35389.2	2343.48	35466.7	3.7886	837.117
49	15.849	35754	2348.88	35831.1	3.75867	839.843
50	12.589	36085.3	2340.8	36161.2	3.71149	842.514
51	10	36431.1	2343.2	36506.4	3.68012	845.365
52	7.9433	36773.7	2333.91	36847.7	3.6315	848.281
53	6.3096	37093.2	2334.63	37166.6	3.60142	851.312
54	5.0119	37407.9	2337.71	37480.9	3.57591	854.478
55	3.9811	37726.7	2355.73	37800.1	3.57303	857.584
56	3.1623	38014.5	2392.07	38089.7	3.6006	860.715
57	2.5119	38285.6	2452.17	38364	3.66476	864.036
58	1.9953	38574	2542.82	38657.8	3.7715	867.567
59	1.5849	38839.3	2653.99	38929.8	3.90909	870.969
60	1.2589	39116.9	2812.78	39217.9	4.1129	874.5
61	1	39384	3069.28	39503.5	4.45617	880.812
62	0.79433	39638.2	3371.45	39781.3	4.86163	884.578
63	0.63096	39904	3724.7	40077.5	5.33262	888.704
64	0.50119	40186.7	4253.37	40411.2	6.0417	893.215
65	0.39811	40472.8	4832.93	40760.4	6.80955	898.031
66	0.31623	40805.8	5695.04	41201.3	7.94514	903.452
67	0.25119	41182.3	6615.72	41710.3	9.1263	909.528
68	0.19953	41538.5	7975.93	42297.3	10.8693	916.324
69	0.15849	41917.5	9475	42975.1	12.737	924.191
70	0.12589	42574.1	11383.3	44069.7	14.9694	933.302
71	0.1	43356.9	13415.7	45385	17.1934	944.168