File: data/20200619/Z_p29_2.txt
Index	Frequency (Hz)	Z' (Ω)	-Z'' (Ω)	Z (Ω)	-Phase (°)	Time (s)
1	1000000	3242.51	5492.09	6377.85	59.4425	439.693
2	794330	4402.4	5796.63	7278.87	52.7842	441.113
3	630960	5670.42	6281.4	8462.25	47.9264	442.513
4	501190	7009.19	6798.58	9764.7	44.1261	443.983
5	398110	8589.73	7572.71	11451.2	41.3994	448.963
6	316230	9953	7937.91	12730.8	38.5738	450.348
7	251190	11293.5	7954.74	13813.8	35.1596	455.378
8	199530	12778.8	8127.82	15144.6	32.4579	456.788
9	158490	14230.1	8215.11	16431.2	29.9981	458.293
10	125890	15690.4	8175.36	17692.5	27.5214	459.633
11	100000	17086.1	8032.55	18880.1	25.1792	461.048
12	79433	18437.5	7832.15	20032.1	23.0155	462.393
13	63096	19767.9	7465.68	21130.7	20.6899	463.723
14	50119	20979.2	7075.12	22140.1	18.6364	465.158
15	39811	22125.8	6588.16	23085.8	16.5814	466.423
16	31623	23086.9	6059	23868.7	14.7053	467.713
17	25119	23905.3	5526.75	24535.9	13.0177	469.038
18	19953	24676.5	5044.81	25186.9	11.5542	470.343
19	15849	25344.6	4571.53	25753.6	10.2248	471.683
20	12589	25890.7	4118.53	26216.3	9.03851	473.013
21	10000	26391.2	3706.27	26650.1	7.99411	475.243
22	7943.3	26833.1	3372.31	27044.2	7.16323	476.458
23	6309.6	27219.3	3078.97	27392.8	6.45371	477.738
24	5011.9	27565.3	2830.51	27710.2	5.8628	479.098
25	3981.1	27873.7	2620.33	27996.6	5.37044	480.443
26	3162.3	28186.3	2451.76	28292.7	4.9713	481.774
27	2511.9	28455.1	2311.25	28548.9	4.64362	483.099
28	1995.3	28736.2	2198.46	28820.1	4.37489	484.389
29	1584.9	28999.5	2111.59	29076.3	4.16462	485.719
30	1258.9	29252.8	2038.73	29323.8	3.9867	487.004
31	1000	29515.6	1989.18	29582.5	3.85557	488.309
32	794.33	29781.8	1950.14	29845.5	3.74644	489.614
33	630.96	30051.3	1921.6	30112.7	3.65874	490.904
34	501.19	30308.6	1902.38	30368.3	3.59157	492.234
35	398.11	30569.4	1890.69	30627.9	3.53917	493.509
36	316.23	30842.3	1884.81	30899.8	3.49706	494.839
37	251.19	31106.5	1880.4	31163.3	3.45934	496.159
38	199.53	31369.1	1881.03	31425.5	3.43159	497.409
39	158.49	31654.6	1885.09	31710.7	3.40804	498.779
40	125.89	31917.3	1885.42	31973	3.38065	500.174
41	100	32196.3	1885.98	32251.5	3.35242	501.549
42	79.433	32483.3	1886.92	32538.1	3.32451	502.949
43	63.096	32734	1888.89	32788.5	3.30254	504.454
44	50.119	33055.8	1874.01	33108.9	3.24475	505.944
45	39.811	33303.5	1877.7	33356.4	3.22699	515.064
46	31.623	33598.9	1868.73	33650.8	3.18345	516.664
47	25.119	33865.4	1859.21	33916.3	3.14239	518.349
48	19.953	34151.5	1853.67	34201.7	3.10685	520.294
49	15.849	34426.7	1839.39	34475.9	3.05836	522.279
50	12.589	34681.9	1820.11	34729.6	3.00413	524.309
51	10	34948.3	1801.43	34994.7	2.95073	526.719
52	7.9433	35187.8	1784.72	35233	2.90355	529.019
53	6.3096	35460.5	1777.05	35505	2.8689	531.429
54	5.0119	35678.3	1765.46	35721.9	2.83285	533.894
55	3.9811	35898.9	1771.6	35942.6	2.82523	536.265
56	3.1623	36116.6	1786.55	36160.8	2.83189	538.79
57	2.5119	36353.5	1840.5	36400.1	2.89828	541.345
58	1.9953	36555.7	1891.71	36604.6	2.96234	544
59	1.5849	36763.7	1983.2	36817.2	3.08779	546.795
60	1.2589	36974	2113.68	37034.4	3.27185	549.705
61	1	37143.7	2280.87	37213.7	3.51393	554.83
62	0.79433	37370.7	2484.43	37453.2	3.80347	557.985
63	0.63096	37569.4	2756.62	37670.4	4.1965	561.555
64	0.50119	37785.3	3089.52	37911.4	4.6744	565.43
65	0.39811	38026.5	3537.12	38190.6	5.3142	569.63
66	0.31623	38218.7	4096.35	38437.6	6.11772	574.405
67	0.25119	38561.8	4852.49	38865.9	7.17221	579.9
68	0.19953	38857.1	5716.49	39275.3	8.36909	586.19
69	0.15849	39268.2	6777.15	39848.8	9.79199	593.566
70	0.12589	39639.1	7941.45	40426.8	11.3289	602.271
71	0.1	40049.9	9784.04	41227.7	13.7283	612.456