File: data/20200619/Z_p20_2.txt
Index	Frequency (Hz)	Z' (Ω)	-Z'' (Ω)	Z (Ω)	-Phase (°)	Time (s)
1	1000000	3039.56	8224.92	8768.59	69.718	461.964
2	794330	5101.52	8993.77	10339.9	60.4369	463.524
3	630960	7223.28	10167	12471.7	54.6076	465.039
4	501190	9244.89	11542.8	14788.7	51.308	466.604
5	398110	12249.4	14118.9	18692	49.0553	471.744
6	316230	14829.8	15464.4	21425.9	46.2	473.079
7	251190	17609.5	15742	23620	41.7951	478.069
8	199530	20677.3	16409.7	26397.5	38.436	479.524
9	158490	23767.7	16848.3	29133.6	35.3319	481.009
10	125890	26884.1	16838.9	31722.3	32.061	482.455
11	100000	29873.3	16579.6	34165.7	29.0301	484.01
12	79433	32777.8	16069.5	36505	26.1167	485.405
13	63096	35426.8	15345.6	38607.6	23.4205	486.84
14	50119	37961.5	14492.8	40633.9	20.8956	488.385
15	39811	40287.9	13482.1	42483.9	18.5025	489.91
16	31623	42234.6	12246.7	43974.3	16.1705	491.36
17	25119	43749	11290.3	45182.3	14.4706	492.77
18	19953	45288.4	10372.3	46461	12.8999	494.18
19	15849	46676	9524.71	47637.9	11.5334	495.63
20	12589	47802.1	8714.51	48589.9	10.3318	497.06
21	10000	48956	8002.32	49605.7	9.28344	499.335
22	7943.3	49927.9	7393.29	50472.3	8.42312	500.535
23	6309.6	50817.5	6860.75	51278.5	7.68888	501.865
24	5011.9	51637	6400.44	52032.2	7.0658	503.23
25	3981.1	52395.2	6022.22	52740.1	6.55671	504.585
26	3162.3	53134.8	5692.49	53438.9	6.11494	505.945
27	2511.9	53821.6	5424.54	54094.2	5.75526	507.335
28	1995.3	54502.1	5207.49	54750.3	5.45785	508.835
29	1584.9	55147.3	5037.71	55376.9	5.21948	510.22
30	1258.9	55786.3	4903.7	56001.4	5.02347	511.555
31	1000	56443.1	4801.18	56646.9	4.86201	512.91
32	794.33	57089.5	4723.56	57284.5	4.72985	514.21
33	630.96	57717.3	4671.37	57906	4.62717	515.525
34	501.19	58373.8	4635.8	58557.6	4.54065	516.845
35	398.11	59023.6	4610.14	59203.4	4.46612	518.13
36	316.23	59701.4	4596.58	59878	4.40269	519.485
37	251.19	60355.2	4581.37	60528.8	4.34081	520.885
38	199.53	60999.6	4576.02	61171	4.29014	522.14
39	158.49	61686	4568.36	61854.9	4.2355	523.595
40	125.89	62348.2	4560.89	62514.8	4.18384	525.105
41	100	63012.6	4544.95	63176.3	4.12546	526.61
42	79.433	63691	4527.58	63851.8	4.06612	528.185
43	63.096	64350.3	4484.36	64506.3	3.98631	529.775
44	50.119	64951.9	4534.76	65110	3.99375	531.35
45	39.811	65683.8	4445.88	65834.1	3.87222	540.441
46	31.623	66318.4	4403.05	66464.4	3.79844	542.166
47	25.119	66989.9	4359.17	67131.6	3.7231	543.746
48	19.953	67606.8	4339.12	67745.9	3.6723	545.681
49	15.849	68240.1	4318	68376.6	3.62066	547.736
50	12.589	68855.6	4255.45	68987	3.53652	549.751
51	10	69480	4224.66	69608.3	3.47953	552.136
52	7.9433	70079.9	4176.14	70204.2	3.41029	554.436
53	6.3096	70655.9	4140.01	70777.1	3.35335	556.876
54	5.0119	71224.5	4109.51	71343	3.30219	559.421
55	3.9811	71820.9	4111.24	71938.5	3.27621	561.916
56	3.1623	72313.6	4127.55	72431.3	3.26681	564.391
57	2.5119	72817.3	4141.33	72935	3.25507	567.096
58	1.9953	73331.8	4255.75	73455.2	3.32139	569.796
59	1.5849	73764.6	4416.02	73896.6	3.426	572.616
60	1.2589	74249.4	4583.48	74390.8	3.53244	575.511
61	1	74745.6	4953.75	74909.6	3.79172	580.561
62	0.79433	75216.7	5330.95	75405.4	4.05403	583.886
63	0.63096	75733.2	5856.63	75959.3	4.42202	587.431
64	0.50119	76213.1	6536	76492.9	4.90166	591.227
65	0.39811	76784.7	7357.04	77136.4	5.47302	595.447
66	0.31623	77383.3	8522.42	77851.2	6.2848	600.152
67	0.25119	78330.4	9641.55	78921.5	7.01714	605.517
68	0.19953	79293.1	11144.3	80072.5	8.00025	611.867
69	0.15849	80333.1	12838.3	81352.5	9.07982	619.222
70	0.12589	81380.8	15101.1	82770	10.5123	627.722
71	0.1	83204.9	17372.4	84999.2	11.7934	637.912