File: data/20200619/Z_p24_2.txt
Index	Frequency (Hz)	Z' (Ω)	-Z'' (Ω)	Z (Ω)	-Phase (°)	Time (s)
1	1000000	3370.87	6808.45	7597.21	63.6599	464.803
2	794330	4980.35	7103.86	8675.75	54.9666	466.688
3	630960	6655.78	7800.17	10253.9	49.5263	468.978
4	501190	8277.96	8465.44	11840.1	45.6415	471.448
5	398110	10437.8	9831.43	14338.9	43.2865	478.063
6	316230	12305.3	10325	16063.2	39.999	479.744
7	251190	13935	10483.4	17438.1	36.9544	485.869
8	199530	15813.9	10818.3	19160.3	34.3761	487.519
9	158490	17723.8	11052.2	20887.4	31.9467	489.369
10	125890	19671.4	11098.3	22586.2	29.4312	490.974
11	100000	21564.7	11058.5	24234.9	27.149	492.764
12	79433	23432.5	10910	25847.8	24.9664	494.519
13	63096	25236.4	10659.6	27395.3	22.8988	496.024
14	50119	27054	10279.6	28941.1	20.8052	497.664
15	39811	28690.2	9718.06	30291.4	18.7125	499.419
16	31623	30262.6	9147.92	31615	16.8193	501.174
17	25119	31592.8	8493.93	32714.7	15.0485	502.919
18	19953	32891	7880.23	33821.8	13.4733	504.574
19	15849	33990.9	7235.48	34752.4	12.0169	506.954
20	12589	35030.8	6552.47	35638.3	10.5947	508.699
21	10000	35880.1	5918.23	36365	9.36628	511.494
22	7943.3	36625.3	5330.9	37011.2	8.28139	513.119
23	6309.6	37311.5	4794.1	37618.2	7.32175	514.889
24	5011.9	37885.5	4301.14	38128.9	6.47705	516.654
25	3981.1	38380.4	3862.03	38574.2	5.74605	518.584
26	3162.3	38829.6	3465.08	38983.9	5.09947	520.344
27	2511.9	39223.9	3120.94	39347.9	4.54929	521.889
28	1995.3	39554.6	2815.56	39654.7	4.07153	523.664
29	1584.9	39858.2	2549.88	39939.7	3.66044	525.109
30	1258.9	40152.8	2323.27	40220	3.31148	526.649
31	1000	40411.1	2121.28	40466.8	3.00483	528.254
32	794.33	40639.8	1952.25	40686.7	2.75025	530.184
33	630.96	40869.6	1807.31	40909.5	2.53205	531.824
34	501.19	41087.6	1684.24	41122.1	2.34732	533.66
35	398.11	41269.9	1584.55	41300.3	2.19877	535.55
36	316.23	41433.7	1498.09	41460.8	2.07071	537.42
37	251.19	41626.8	1431.79	41651.4	1.96997	539.14
38	199.53	41806.3	1389.48	41829.4	1.90359	540.63
39	158.49	41952.4	1352.46	41974.1	1.84647	542.135
40	125.89	42105.5	1331.12	42126.5	1.81074	543.81
41	100	42260.9	1320.53	42281.5	1.78974	545.46
42	79.433	42416.8	1328.6	42437.6	1.79406	547.225
43	63.096	42580.2	1353.4	42601.7	1.82052	549.21
44	50.119	42768.1	1361.51	42789.7	1.82337	551.015
45	39.811	42914	1436.08	42938	1.91664	560.445
46	31.623	43092.6	1504.36	43118.8	1.99938	562.4
47	25.119	43259.2	1589.74	43288.4	2.10462	564.4
48	19.953	43468.9	1713.14	43502.7	2.2569	567.36
49	15.849	43643.2	1854.26	43682.5	2.43285	569.76
50	12.589	43866.7	2020.65	43913.2	2.63738	572.17
51	10	44089.1	2220.67	44145	2.88342	574.735
52	7.9433	44355.2	2451.22	44422.9	3.16314	577.575
53	6.3096	44624.8	2718.96	44707.6	3.48668	580.155
54	5.0119	44926.6	3025.29	45028.3	3.8524	582.81
55	3.9811	45294.3	3379.86	45420.3	4.2675	585.79
56	3.1623	45687.7	3800.21	45845.5	4.7548	588.611
57	2.5119	46075.8	4251.52	46271.5	5.27189	591.516
58	1.9953	46530.5	4801.26	46777.5	5.89123	594.341
59	1.5849	47017.6	5413.64	47328.2	6.56815	597.496
60	1.2589	47494	6157.94	47891.5	7.3876	600.646
61	1	48057.2	7029.28	48568.5	8.32159	606.376
62	0.79433	48715.2	8104.43	49384.7	9.44542	609.716
63	0.63096	49417.5	9288.43	50282.8	10.645	613.376
64	0.50119	50093.2	10845.7	51253.8	12.2166	617.471
65	0.39811	50882.9	12869.8	52485.3	14.1941	621.846
66	0.31623	51956.1	15065.1	54096.1	16.1699	626.621
67	0.25119	52832.1	17850.2	55766.1	18.6684	632.316
68	0.19953	54347.7	20979	58256.2	21.1073	638.756
69	0.15849	55917.8	24876.5	61201.6	23.9832	646.337
70	0.12589	57766.5	29902.5	65047.1	27.3681	655.162
71	0.1	60780.4	35421.4	70348.7	30.2326	665.492