File: data/20200619/Z_p26_1.txt
Index	Frequency (Hz)	Z' (Ω)	-Z'' (Ω)	Z (Ω)	-Phase (°)	Time (s)
1	1000000	3740.38	8630.06	9405.77	66.5674	140.198
2	794330	6028.76	9024.02	10852.6	56.254	141.588
3	630960	8275.13	9957.12	12946.9	50.2708	142.963
4	501190	10703.1	10804.9	15208.6	45.2711	144.438
5	398110	13687.7	12903.5	18811	43.3107	149.509
6	316230	16344.1	13404.3	21137.8	39.3563	150.869
7	251190	18518.1	13282.2	22789	35.6502	155.744
8	199530	20943.7	13407.2	24867.5	32.6255	157.094
9	158490	23495.4	13404.3	27050.2	29.7051	158.544
10	125890	25848.7	13201.3	29024.6	27.054	159.869
11	100000	28109.9	12790.9	30883.2	24.4672	161.314
12	79433	30204.9	12320.9	32621.2	22.1911	162.639
13	63096	32242	11610	34268.6	19.8034	164.009
14	50119	34083.6	10855	35770.4	17.6657	165.399
15	39811	35720	10032.1	37102	15.6876	166.684
16	31623	37145.7	9019.88	38225.1	13.6487	167.969
17	25119	38308.3	8162.34	39168.2	12.0281	169.284
18	19953	39473.1	7425.02	40165.4	10.653	170.574
19	15849	40325.6	6586.15	40859.9	9.27589	171.854
20	12589	41191	5879.41	41608.5	8.12326	173.189
21	10000	41887.2	5191.56	42207.7	7.06529	175.384
22	7943.3	42516.3	4623.82	42767	6.20675	176.654
23	6309.6	43014.1	4106.62	43209.7	5.45359	177.944
24	5011.9	43479.7	3662	43633.7	4.81426	179.234
25	3981.1	43858.7	3265.13	43980.1	4.25762	180.589
26	3162.3	44201.6	2921.99	44298	3.7821	181.864
27	2511.9	44521.4	2628.68	44598.9	3.379	183.194
28	1995.3	44767.2	2377.09	44830.2	3.03949	184.474
29	1584.9	45034	2162.86	45085.9	2.74965	185.749
30	1258.9	45286.8	1973.05	45329.8	2.49468	187.139
31	1000	45489.5	1821.04	45525.9	2.29244	188.429
32	794.33	45697.6	1689.21	45728.8	2.11697	189.804
33	630.96	45883.2	1573.49	45910.2	1.96409	191.129
34	501.19	46064	1476.55	46087.6	1.83595	192.434
35	398.11	46257.5	1398.55	46278.6	1.73176	193.744
36	316.23	46426.1	1344.56	46445.6	1.6589	195.024
37	251.19	46591	1293	46609	1.58967	196.329
38	199.53	46737.3	1260.33	46754.3	1.54467	197.644
39	158.49	46878.6	1239.15	46895	1.51416	198.989
40	125.89	47015.6	1231.58	47031.7	1.50053	200.379
41	100	47169.9	1233.23	47186	1.49762	201.685
42	79.433	47311	1246.78	47327.4	1.50955	203.055
43	63.096	47452.4	1275.38	47469.5	1.53957	204.545
44	50.119	47591	1365.3	47610.6	1.64327	206.025
45	39.811	47769.7	1396.32	47790.1	1.6743	215.15
46	31.623	47916.8	1473.15	47939.4	1.76094	216.77
47	25.119	48096	1574.68	48121.7	1.87522	218.4
48	19.953	48279.1	1723.96	48309.9	2.04506	220.265
49	15.849	48459.2	1877.35	48495.5	2.21858	222.23
50	12.589	48677.4	2076.69	48721.7	2.44289	224.295
51	10	48899	2302.43	48953.2	2.6958	226.605
52	7.9433	49128.6	2562.01	49195.4	2.98522	228.865
53	6.3096	49438	2874.78	49521.5	3.32795	231.2
54	5.0119	49726.2	3237.89	49831.5	3.72553	233.57
55	3.9811	50082	3657.63	50215.4	4.17705	236.105
56	3.1623	50417.4	4148.18	50587.8	4.70352	238.825
57	2.5119	50823.2	4720.87	51042	5.30687	242.96
58	1.9953	51300.2	5399.44	51583.6	6.00837	246.015
59	1.5849	51809.8	6252.71	52185.7	6.88151	249.835
60	1.2589	52322.7	7137.13	52807.2	7.76755	253.715
61	1	52887.1	8303.41	53535	8.92274	259.026
62	0.79433	53627.9	9702.63	54498.5	10.2553	262.286
63	0.63096	54401.1	11232.4	55548.6	11.6662	265.851
64	0.50119	55252.8	13276	56825.4	13.5108	270.841
65	0.39811	56247.5	15783.9	58420.1	15.675	277.081
66	0.31623	57271.5	18564.7	60205.3	17.9602	282.856
67	0.25119	58690.2	22205	62750.3	20.7237	289.051
68	0.19953	60574.2	26065.8	65944.4	23.2828	295.436
69	0.15849	62435.5	31035.1	69723.5	26.4308	302.931
70	0.12589	64826.1	37193.6	74738.1	29.8448	311.812
71	0.1	68571.4	43960.3	81452.7	32.6634	322.117