File: data/20200619/Z_p21_1.txt
Index	Frequency (Hz)	Z' (Ω)	-Z'' (Ω)	Z (Ω)	-Phase (°)	Time (s)
1	1000000	3841.19	6174.03	7271.41	58.1121	141.573
2	794330	5276.87	6207.72	8147.47	49.6338	143.158
3	630960	6660.28	6544.93	9337.85	44.4995	148.644
4	501190	8144.9	6907.57	10679.6	40.3008	154.279
5	398110	10023.7	7539.6	12542.7	36.9497	159.619
6	316230	11623	7653.49	13916.5	33.364	161.004
7	251190	12783.7	7316.1	14729.1	29.7826	167.719
8	199530	14162	7131.12	15856.1	26.727	169.409
9	158490	15474.5	6885.61	16937.3	23.9874	171.184
10	125890	16662.4	6488.82	17881.3	21.2774	172.784
11	100000	17729.1	6045.73	18731.6	18.8296	174.694
12	79433	18667.4	5564.02	19478.9	16.5973	176.029
13	63096	19476.8	5040.91	20118.5	14.5107	177.534
14	50119	20195.4	4521.28	20695.4	12.6191	179.124
15	39811	20786.7	4018.28	21171.5	10.9409	180.819
16	31623	21252.6	3540.06	21545.4	9.45697	182.279
17	25119	21654.8	3113.57	21877.5	8.18202	184.019
18	19953	21993.5	2753.4	22165.2	7.13582	185.574
19	15849	22317.7	2431.54	22449.8	6.21791	187.189
20	12589	22558.6	2138.51	22659.8	5.41533	188.794
21	10000	22770.6	1870.57	22847.3	4.69622	191.844
22	7943.3	22973.1	1662.68	23033.2	4.13956	193.684
23	6309.6	23141.8	1481.86	23189.2	3.66387	195.249
24	5011.9	23298.1	1326.77	23335.8	3.25934	196.889
25	3981.1	23444.9	1195.07	23475.4	2.91804	198.344
26	3162.3	23564.7	1081.13	23589.5	2.62685	199.795
27	2511.9	23670.6	987.713	23691.2	2.38942	201.39
28	1995.3	23784.3	903.764	23801.4	2.1761	202.79
29	1584.9	23879.6	832.986	23894.1	1.99783	204.07
30	1258.9	23982.4	771.69	23994.8	1.84299	205.525
31	1000	24071.9	723.165	24082.8	1.72076	206.875
32	794.33	24167	676.548	24176.5	1.60356	208.665
33	630.96	24235	640.464	24243.5	1.51382	210.105
34	501.19	24323.7	606.969	24331.3	1.42945	211.54
35	398.11	24400.4	581.841	24407.3	1.36599	213.43
36	316.23	24472.1	558.178	24478.5	1.30662	215.065
37	251.19	24547.7	541.919	24553.7	1.26466	216.805
38	199.53	24611.9	526.469	24617.5	1.22542	218.05
39	158.49	24675.8	517.403	24681.2	1.20121	219.435
40	125.89	24730.7	512.726	24736	1.18771	220.92
41	100	24791.3	510.177	24796.5	1.17892	222.41
42	79.433	24855.6	516.189	24861	1.18972	223.88
43	63.096	24908.3	528.07	24913.9	1.21452	225.43
44	50.119	25029.5	460.829	25033.8	1.05478	253.901
45	39.811	25000.7	565.273	25007.1	1.29525	263.091
46	31.623	25062.4	581.716	25069.1	1.32964	264.776
47	25.119	25127.2	642.88	25135.5	1.46559	266.471
48	19.953	25212.4	679.54	25221.6	1.5439	268.491
49	15.849	25312.5	745.932	25323.5	1.68796	270.556
50	12.589	25405.8	818.447	25418.9	1.84515	272.581
51	10	25439.9	944.138	25457.4	2.12541	274.936
52	7.9433	25563.4	1082.14	25586.3	2.42398	277.291
53	6.3096	25686.8	1182.34	25714	2.63541	279.661
54	5.0119	25831.4	1310.75	25864.6	2.90484	282.096
55	3.9811	25962.9	1476.36	26004.9	3.25457	284.666
56	3.1623	26122.8	1721.66	26179.4	3.77071	287.216
57	2.5119	26258.1	1944.61	26330	4.23544	289.736
58	1.9953	26496.4	2428.43	26607.4	5.23662	292.556
59	1.5849	26892.9	2547.32	27013.3	5.41096	295.541
60	1.2589	26878.3	2966.36	27041.5	6.29783	298.681
61	1	27375.1	3193.75	27560.8	6.65439	304.061
62	0.79433	27736	3607.22	27969.6	7.41002	307.517
63	0.63096	28101.8	4106.57	28400.3	8.3139	311.107
64	0.50119	28530.1	4676.95	28910.9	9.30972	317.547
65	0.39811	29046.9	5317.07	29529.5	10.3732	323.182
66	0.31623	29466.7	6115.27	30094.6	11.7242	328.092
67	0.25119	30116.9	7041.73	30929.2	13.1601	333.947
68	0.19953	30701.1	8145.76	31763.4	14.8596	340.192
69	0.15849	31283.4	9427.43	32673	16.7705	348.057
70	0.12589	32163.7	10896.5	33959.3	18.7155	356.827
71	0.1	32619.7	12844.8	35057.5	21.4933	367.333