File: data/20200619/Z_p27_1.txt
Index	Frequency (Hz)	Z' (Ω)	-Z'' (Ω)	Z (Ω)	-Phase (°)	Time (s)
1	1000000	3385.43	5922.84	6822.11	60.2482	84.7003
2	794330	4720.63	6236.53	7821.68	52.8767	86.0654
3	630960	6121.67	6764.62	9123.32	47.8564	87.4954
4	501190	7554.22	7270.39	10484.5	43.9031	88.9654
5	398110	9390.78	8161.62	12441.8	40.9942	93.9905
6	316230	10973	8416.26	13829	37.488	95.3555
7	251190	12430.3	8365.67	14983.3	33.9407	100.376
8	199530	14012.7	8414.27	16344.9	30.9838	101.661
9	158490	15584.7	8337.59	17674.8	28.1461	102.936
10	125890	17053.3	8108.2	18882.8	25.4293	104.246
11	100000	18428.1	7770.92	19999.6	22.8646	105.651
12	79433	19688.6	7348.87	21015.4	20.4683	106.916
13	63096	20839.5	6881.36	21946.2	18.2736	108.266
14	50119	21895	6373.04	22803.6	16.2289	109.666
15	39811	22836.8	5871.24	23579.4	14.4182	110.956
16	31623	23611.6	5328.28	24205.3	12.7166	112.231
17	25119	24281.5	4844.74	24760.1	11.2837	113.521
18	19953	24862	4434.44	25254.3	10.1131	114.801
19	15849	25431	4081.26	25756.4	9.11727	116.121
20	12589	25923.1	3706.43	26186.8	8.13687	117.436
21	10000	26359.2	3392.38	26576.6	7.33355	119.606
22	7943.3	26762.5	3142.32	26946.4	6.69671	120.831
23	6309.6	27135.3	2929.12	27292.9	6.16094	122.141
24	5011.9	27490	2749.52	27627.1	5.71167	123.476
25	3981.1	27804	2599.22	27925.3	5.34069	124.801
26	3162.3	28130.8	2483.65	28240.2	5.04553	126.071
27	2511.9	28423.2	2383.31	28523	4.79309	127.381
28	1995.3	28709	2314.41	28802.1	4.60901	128.651
29	1584.9	29004	2258.85	29091.8	4.45324	129.826
30	1258.9	29304.9	2215.1	29388.5	4.32267	131.106
31	1000	29612.5	2195.44	29693.7	4.2401	132.386
32	794.33	29918.2	2179.83	29997.5	4.16719	133.756
33	630.96	30199.6	2173.09	30277.6	4.11578	135.041
34	501.19	30515	2171.91	30592.2	4.07117	136.401
35	398.11	30819.8	2177.89	30896.7	4.04211	137.726
36	316.23	31136	2190.32	31213	4.02395	139.006
37	251.19	31443.6	2199.46	31520.4	4.00128	140.331
38	199.53	31774.9	2217.64	31852.1	3.99232	141.681
39	158.49	32080.7	2231.34	32158.2	3.97874	143.011
40	125.89	32417.4	2249.55	32495.3	3.96958	144.396
41	100	32753.2	2267.11	32831.5	3.95958	145.706
42	79.433	33079.5	2277.82	33157.8	3.93911	147.122
43	63.096	33419.7	2291.64	33498.2	3.92271	148.597
44	50.119	33762	2295.19	33839.9	3.88906	150.037
45	39.811	34110.5	2308.9	34188.5	3.87238	159.182
46	31.623	34455.9	2315.21	34533.6	3.84412	160.777
47	25.119	34779.5	2314.31	34856.4	3.807	162.487
48	19.953	35127.2	2325.5	35204.1	3.78758	164.412
49	15.849	35468.8	2321.5	35544.7	3.74477	166.312
50	12.589	35801.7	2314.41	35876.5	3.69875	168.317
51	10	36161	2314.59	36235	3.66239	170.597
52	7.9433	36477.9	2309.15	36550.9	3.62215	172.907
53	6.3096	36796	2299.76	36867.8	3.57636	175.182
54	5.0119	37117.2	2300.16	37188.4	3.54611	177.612
55	3.9811	37413	2314.57	37484.6	3.54011	180.027
56	3.1623	37720.5	2336.84	37792.8	3.54503	182.517
57	2.5119	37985.6	2408.11	38061.8	3.62744	185.092
58	1.9953	38264.9	2479.32	38345.2	3.70722	187.727
59	1.5849	38535.6	2621.84	38624.6	3.89224	190.422
60	1.2589	38803.8	2779.76	38903.2	4.09746	193.312
61	1	39043.5	2983.41	39157.3	4.36962	198.382
62	0.79433	39317.5	3255.91	39452.1	4.7339	201.478
63	0.63096	39555.4	3613.29	39720.1	5.21934	204.908
64	0.50119	39798.5	4081.44	40007.2	5.85537	208.708
65	0.39811	40058.8	4668.63	40329.9	6.64753	212.893
66	0.31623	40350.3	5531.51	40727.7	7.80586	217.653
67	0.25119	40783.3	6379.14	41279.2	8.88992	223.138
68	0.19953	41164.2	7546.82	41850.3	10.3889	229.403
69	0.15849	41576	8948.03	42528	12.146	236.713
70	0.12589	41891.7	10915	43290.4	14.6038	245.293
71	0.1	42908	13055.1	44850.1	16.9228	255.479