File: data/20200619/Z_p23_2.txt
Index	Frequency (Hz)	Z' (Ω)	-Z'' (Ω)	Z (Ω)	-Phase (°)	Time (s)
1	1000000	3961.08	8022.55	8947.15	63.7224	475.528
2	794330	5981.15	8154.57	10112.9	53.741	477.083
3	630960	7974.37	8700.2	11801.9	47.4925	478.718
4	501190	10070.5	9446.15	13807.4	43.1678	480.353
5	398110	12713.5	10825.2	16697.8	40.4135	485.984
6	316230	14745.1	11207.3	18520.9	37.2374	487.314
7	251190	16589.1	11162.8	19995.2	33.9365	493.069
8	199530	18656.2	11291.8	21807.3	31.1847	494.719
9	158490	20582.2	11322.7	23491	28.8161	496.364
10	125890	22590.6	11183.4	25207.2	26.3376	497.904
11	100000	24455.3	10940.4	26790.9	24.1019	499.459
12	79433	26209.3	10584.7	28266	21.9914	501.019
13	63096	27990.3	10162.3	29777.9	19.9542	502.534
14	50119	29609.5	9650.43	31142.4	18.052	504.144
15	39811	31131.8	9054.98	32421.9	16.2176	505.774
16	31623	32500.5	8246.13	33530.3	14.2368	507.349
17	25119	33665.6	7693.59	34533.6	12.8727	508.864
18	19953	34766.7	7071.22	35478.5	11.4966	510.299
19	15849	35723.9	6345.82	36283.2	10.0727	511.864
20	12589	36548.1	5789.89	37003.9	9.0019	513.874
21	10000	37322	5173.18	37678.8	7.89146	516.419
22	7943.3	37956.3	4639.04	38238.8	6.96815	517.964
23	6309.6	38511.6	4154.98	38735.1	6.15776	519.474
24	5011.9	39020.2	3721.6	39197.2	5.44818	521.059
25	3981.1	39420.5	3330.45	39561	4.82917	522.529
26	3162.3	39782.4	2993.69	39894.9	4.30349	524.164
27	2511.9	40127.9	2703.43	40218.9	3.85422	525.749
28	1995.3	40395.4	2442.07	40469.1	3.45956	527.344
29	1584.9	40668	2213.22	40728.2	3.11506	528.674
30	1258.9	40905.4	2021.69	40955.3	2.82946	530.214
31	1000	41141.9	1858.31	41183.9	2.58619	531.769
32	794.33	41332.8	1716.3	41368.4	2.37779	533.364
33	630.96	41551.1	1600.91	41581.9	2.20644	534.949
34	501.19	41714.5	1501.78	41741.5	2.06183	536.605
35	398.11	41907.4	1422.28	41931.6	1.94379	538
36	316.23	42075.8	1360.64	42097.8	1.85218	539.39
37	251.19	42235.9	1310.97	42256.3	1.77785	540.82
38	199.53	42397.2	1279.51	42416.5	1.72861	542.255
39	158.49	42526.7	1267.43	42545.6	1.70709	543.66
40	125.89	42672.3	1264.29	42691	1.69706	545.26
41	100	42832.4	1275.73	42851.4	1.70601	547.03
42	79.433	42956.8	1307.66	42976.7	1.74362	548.735
43	63.096	43089.8	1359.83	43111.3	1.80754	550.6
44	50.119	43211.2	1403.48	43233.9	1.86029	552.12
45	39.811	43437.1	1501.66	43463	1.97998	561.585
46	31.623	43618.1	1608.16	43647.7	2.11149	563.69
47	25.119	43815.7	1743.19	43850.4	2.27829	565.755
48	19.953	44007.4	1920.61	44049.3	2.49897	567.655
49	15.849	44215.7	2109.7	44266.1	2.73172	569.765
50	12.589	44484.6	2330.83	44545.6	2.99934	572.09
51	10	44753.6	2579.91	44827.9	3.29927	574.82
52	7.9433	45069.8	2863.88	45160.7	3.63587	577.26
53	6.3096	45422.3	3194.4	45534.5	4.0228	579.655
54	5.0119	45784.6	3557.57	45922.6	4.44309	582.335
55	3.9811	46198.7	3971.74	46369.1	4.91369	587.47
56	3.1623	46665	4433.62	46875.2	5.42735	592.181
57	2.5119	47165.5	4975	47427.2	6.02126	596.041
58	1.9953	47636.5	5581.23	47962.3	6.68248	599.516
59	1.5849	48223.1	6327.48	48636.4	7.47524	603.371
60	1.2589	48809.5	7167.41	49333	8.35386	607.436
61	1	49490	8215.81	50167.3	9.42569	614.041
62	0.79433	50282.3	9415.72	51156.3	10.6062	617.491
63	0.63096	51034	10839.5	52172.5	11.9913	621.336
64	0.50119	51981.4	12719.6	53515	13.7499	625.611
65	0.39811	52969.4	14922.1	55031.2	15.7331	631.101
66	0.31623	54204.5	17601.5	56990.7	17.9898	637.446
67	0.25119	55809.8	20842.4	59574.7	20.4783	643.677
68	0.19953	57364	24429.6	62349.3	23.0677	650.252
69	0.15849	59512.7	28891.9	66155.1	25.8954	657.602
70	0.12589	62502.9	33852.3	71081.6	28.4405	666.252
71	0.1	64786.4	39345.5	75798.1	31.2707	676.712