File: data/20200619/Z_p23_3.txt
Index	Frequency (Hz)	Z' (Ω)	-Z'' (Ω)	Z (Ω)	-Phase (°)	Time (s)
1	1000000	4067.16	8050.16	9019.25	63.1959	824.984
2	794330	6104.9	8168.4	10197.7	53.2263	827.215
3	630960	8047.39	8733.53	11875.8	47.3414	829.556
4	501190	9962.79	9483.44	13754.7	43.588	831.972
5	398110	12659.6	10850.9	16673.5	40.6008	841.122
6	316230	14791.9	11075.3	18478.7	36.8236	843.258
7	251190	16596.6	11157.8	19998.6	33.9127	852.303
8	199530	18633	11299.5	21791.5	31.2337	854.479
9	158490	20614.8	11267	23492.9	28.6587	856.77
10	125890	22560.5	11174.1	25176.1	26.349	858.966
11	100000	24439.1	10934.4	26773.7	24.1044	861.237
12	79433	26233	10591.5	28290.4	21.9862	863.438
13	63096	27968.2	10184	29764.6	20.0079	865.544
14	50119	29602.3	9671.18	31142.1	18.0924	867.78
15	39811	31138.7	9042.97	32425.2	16.1938	870.112
16	31623	32489.1	8315.9	33536.5	14.3572	872.398
17	25119	33636.1	7697.02	34505.6	12.8892	874.554
18	19953	34718.2	7050.62	35426.9	11.4796	876.78
19	15849	35711.6	6386.5	36278.2	10.1393	878.931
20	12589	36595.4	5802.29	37052.5	9.0094	881.052
21	10000	37334.1	5180.48	37691.8	7.89992	885.264
22	7943.3	37962.9	4648.06	38246.4	6.98038	887.285
23	6309.6	38527.1	4163.44	38751.4	6.16774	889.531
24	5011.9	39013.6	3729.72	39191.5	5.46091	891.812
25	3981.1	39422.8	3339.18	39563.9	4.84149	893.973
26	3162.3	39807.4	2999.96	39920.3	4.30977	896.119
27	2511.9	40129.4	2700.69	40220.2	3.85017	898.275
28	1995.3	40420.3	2436.71	40493.7	3.44986	900.496
29	1584.9	40701.4	2221.55	40762	3.1242	902.767
30	1258.9	40927.6	2047.22	40978.8	2.86357	904.978
31	1000	41146.4	1863.55	41188.6	2.5932	907.049
32	794.33	41370.7	1726.42	41406.7	2.3896	909.435
33	630.96	41555.1	1606.83	41586.1	2.21438	911.641
34	501.19	41743.7	1511.42	41771.1	2.07361	913.962
35	398.11	41905.1	1430.52	41929.5	1.95515	916.008
36	316.23	42092.8	1370.67	42115.1	1.86507	918.054
37	251.19	42259	1326.52	42279.8	1.79793	920.19
38	199.53	42404.9	1298.72	42424.8	1.75423	922.326
39	158.49	42544.6	1284.96	42564	1.72996	924.523
40	125.89	42711.9	1286.38	42731.2	1.72509	926.794
41	100	42842.5	1304.03	42862.4	1.74341	929.08
42	79.433	43000.8	1336.42	43021.5	1.78012	931.326
43	63.096	43156.4	1392.72	43178.8	1.84838	933.717
44	50.119	43322.9	1466.75	43347.7	1.93907	935.953
45	39.811	43477.6	1553.8	43505.4	2.04676	945.984
46	31.623	43653	1667.95	43684.9	2.18817	948.54
47	25.119	43862.9	1810.86	43900.2	2.36408	951.131
48	19.953	44067.3	1999.21	44112.6	2.59757	953.952
49	15.849	44308.3	2206.83	44363.3	2.85133	956.743
50	12.589	44569.3	2439.45	44636	3.13289	959.699
51	10	44856.7	2712.79	44938.7	3.46085	962.755
52	7.9433	45166.8	3014.65	45267.3	3.81853	965.886
53	6.3096	45565.5	3364.08	45689.5	4.22246	969.022
54	5.0119	45959.3	3744.79	46111.6	4.6582	972.343
55	3.9811	46412.5	4180.1	46600.3	5.14641	975.819
56	3.1623	46895.3	4649.43	47125.2	5.66208	979.131
57	2.5119	47422.9	5219.48	47709.3	6.28083	982.512
58	1.9953	47982.1	5869.85	48339.8	6.97458	985.983
59	1.5849	48579.1	6605.15	49026.1	7.74285	989.639
60	1.2589	49234.3	7472.29	49798.1	8.62993	993.425
61	1	49888	8541.99	50614.1	9.71615	1000.33
62	0.79433	50738.3	9820.24	51679.9	10.954	1004.36
63	0.63096	51533.7	11235.9	52744.3	12.2997	1008.65
64	0.50119	52417.2	13062	54020.2	13.9928	1013.45
65	0.39811	53468.1	15292.7	55612.1	15.9614	1018.51
66	0.31623	54917.6	18194.9	57853.3	18.3307	1024.32
67	0.25119	56438	21433.7	60371	20.7955	1030.81
68	0.19953	58280.8	24728	63309.7	22.9911	1037.85
69	0.15849	60734	29313.6	67438.1	25.7645	1046.05
70	0.12589	63399.3	34424	72142.1	28.5007	1055.48
71	0.1	65877.1	40162.4	77154.5	31.3688	1066.54