File: data/20200619/Z_p25_1.txt
Index	Frequency (Hz)	Z' (Ω)	-Z'' (Ω)	Z (Ω)	-Phase (°)	Time (s)
1	1000000	3669.23	8109.74	8901.19	65.6558	153.064
2	794330	5637.65	8528.68	10223.6	56.5344	155.269
3	630960	7695.41	9466.5	12199.8	50.892	156.929
4	501190	9830.95	10396.5	14308.6	46.6016	158.439
5	398110	12501.2	12386.5	17598.5	44.7358	163.734
6	316230	14695.6	13198.9	19752.7	41.9287	165.094
7	251190	16966.6	13312.5	21565.9	38.1187	171.009
8	199530	19370.6	13871.4	23825.1	35.6067	172.499
9	158490	21851.3	14163.6	26040.1	32.9506	174.094
10	125890	24292.7	14341.2	28210	30.5555	175.479
11	100000	26729.7	14348.1	30337.2	28.2262	176.924
12	79433	29135.4	14223.5	32421.8	26.021	178.399
13	63096	31534.3	13997.6	34501.4	23.9357	179.879
14	50119	33822.1	13620.8	36461.7	21.9356	181.749
15	39811	36121.6	13059.6	38409.9	19.8772	183.199
16	31623	38196.5	12343.6	40141.4	17.9088	184.594
17	25119	40000.2	11564.8	41638.4	16.1255	185.944
18	19953	41723.9	10790.4	43096.6	14.4998	187.229
19	15849	43250	10059.4	44404.5	13.0935	188.509
20	12589	44765.6	9267.85	45714.9	11.6967	189.829
21	10000	46045.3	8435.04	46811.6	10.3809	192.034
22	7943.3	47165.9	7687.31	47788.3	9.25692	193.474
23	6309.6	48175	6995.86	48680.3	8.2626	194.799
24	5011.9	49067.4	6347.78	49476.3	7.37134	196.059
25	3981.1	49830.8	5747.24	50161.1	6.57915	197.304
26	3162.3	50507.9	5209.97	50775.9	5.88932	198.664
27	2511.9	51124.9	4725.1	51342.8	5.28043	200.029
28	1995.3	51689	4297.82	51867.4	4.75308	201.384
29	1584.9	52183.2	3921.32	52330.3	4.29742	202.575
30	1258.9	52639.2	3595.4	52761.8	3.90739	204.01
31	1000	53045.6	3307.12	53148.6	3.56748	205.35
32	794.33	53391.5	3057.07	53478.9	3.27704	206.755
33	630.96	53740.9	2847.49	53816.3	3.03301	208.055
34	501.19	54080.1	2674.54	54146.2	2.83127	209.35
35	398.11	54413.7	2536.24	54472.8	2.66865	210.605
36	316.23	54705.6	2420.82	54759.1	2.53379	211.93
37	251.19	54989.8	2336.99	55039.4	2.43353	213.215
38	199.53	55264.6	2282.61	55311.7	2.36516	214.555
39	158.49	55516.8	2252.56	55562.5	2.32346	215.915
40	125.89	55783.6	2241.82	55828.6	2.30136	217.345
41	100	56025.7	2270.35	56071.7	2.32055	218.775
42	79.433	56298.7	2324.18	56346.6	2.364	220.18
43	63.096	56556.3	2412	56607.7	2.44206	221.71
44	50.119	56842.1	2491.69	56896.7	2.50997	223.21
45	39.811	57142.7	2660.49	57204.6	2.66569	232.305
46	31.623	57453.7	2835.84	57523.6	2.82575	233.915
47	25.119	57777.4	3065.38	57858.6	3.03698	235.45
48	19.953	58121.3	3352.7	58217.9	3.30142	237.345
49	15.849	58480.9	3684.58	58596.8	3.60515	239.305
50	12.589	58946.7	4062.57	59086.6	3.94256	241.405
51	10	59392.1	4524.73	59564.3	4.35661	243.71
52	7.9433	59906.8	5060.96	60120.1	4.82892	245.99
53	6.3096	60492.5	5686.11	60759.1	5.36985	248.44
54	5.0119	61096.6	6388.39	61429.7	5.96928	250.835
55	3.9811	61818.5	7208.82	62237.4	6.65137	253.24
56	3.1623	62601	8143.87	63128.5	7.41208	255.736
57	2.5119	63555.9	9217.37	64220.8	8.25195	258.326
58	1.9953	64525.4	10481.1	65371	9.22618	260.951
59	1.5849	65649.6	11857.5	66711.8	10.2383	263.771
60	1.2589	66816.4	13513.9	68169.4	11.4341	266.641
61	1	68298.4	15397.7	70012.6	12.7048	271.696
62	0.79433	69942.9	17543.2	72109.5	14.0806	274.781
63	0.63096	71631.6	20196.2	74424.3	15.7455	278.246
64	0.50119	73611.8	23166.2	77171	17.4692	282.111
65	0.39811	75947.5	26839.8	80550.6	19.4634	286.266
66	0.31623	78354.7	30980.5	84257	21.5733	291.041
67	0.25119	81754.1	36273.6	89439.9	23.9264	296.456
68	0.19953	85329.6	42216.9	95201.9	26.3239	302.696
69	0.15849	89622.6	48642.6	101972	28.4909	309.912
70	0.12589	94065.2	55917.1	109430	30.7294	318.437
71	0.1	99850.5	66079.7	119736	33.496	328.592