File: data/20200619/Z_p35_2.txt
Index	Frequency (Hz)	Z' (Ω)	-Z'' (Ω)	Z (Ω)	-Phase (°)	Time (s)
1	1000000	3006.59	2465.03	3887.92	39.3476	470.917
2	794330	3393.12	2296.88	4097.43	34.095	472.447
3	630960	3853.63	2194.25	4434.55	29.6571	474.027
4	501190	4283.06	2103.09	4771.54	26.1523	475.692
5	398110	4747.3	1967.62	5138.91	22.5126	480.898
6	316230	5092.01	1826.81	5409.79	19.736	482.278
7	251190	5314.47	1601.58	5550.55	16.7709	486.608
8	199530	5587.79	1462.27	5775.95	14.6649	488.023
9	158490	5822.06	1316.7	5969.09	12.7435	489.343
10	125890	6009.03	1171.67	6122.19	11.0334	490.733
11	100000	6163.41	1034.34	6249.6	9.52654	492.248
12	79433	6292.78	907.663	6357.9	8.20767	493.723
13	63096	6394.24	792.916	6443.21	7.06887	495.278
14	50119	6476.9	691.536	6513.72	6.09436	496.823
15	39811	6554.67	601.61	6582.22	5.24411	498.348
16	31623	6610.49	522.381	6631.1	4.5183	499.913
17	25119	6657.57	460.463	6673.47	3.95649	501.418
18	19953	6698.19	406.804	6710.53	3.4755	502.798
19	15849	6738.72	360.331	6748.35	3.06079	504.168
20	12589	6774.35	321.864	6781.99	2.7202	505.473
21	10000	6805.09	292.642	6811.38	2.46239	506.908
22	7943.3	6837.08	265.223	6842.23	2.2215	508.458
23	6309.6	6864.16	243.217	6868.47	2.02931	509.953
24	5011.9	6889.7	223.933	6893.34	1.86161	511.498
25	3981.1	6915.3	208.417	6918.44	1.72629	513.083
26	3162.3	6934.23	195.328	6936.99	1.61352	514.608
27	2511.9	6957.72	185.715	6960.2	1.52897	516.878
28	1995.3	6980.69	177.255	6982.94	1.45455	518.938
29	1584.9	7000.98	169.234	7003.03	1.38474	520.313
30	1258.9	7024.51	161.199	7026.36	1.3146	521.678
31	1000	7046.99	156.612	7048.73	1.27313	523.083
32	794.33	7065.44	151.911	7067.07	1.2317	524.548
33	630.96	7084.09	147.451	7085.63	1.19241	525.903
34	501.19	7104.65	145.393	7106.13	1.17236	527.303
35	398.11	7123.75	142.021	7125.16	1.14211	528.608
36	316.23	7143.17	141.114	7144.57	1.13174	529.923
37	251.19	7160.48	139.262	7161.84	1.11419	531.338
38	199.53	7182.49	140.513	7183.87	1.12075	532.683
39	158.49	7199.46	143.53	7200.89	1.14211	533.998
40	125.89	7220.5	147.459	7222.01	1.16995	535.479
41	100	7237.78	150.355	7239.34	1.19007	536.799
42	79.433	7257.75	154.369	7259.39	1.21847	538.174
43	63.096	7278.59	162.112	7280.4	1.2759	539.704
44	50.119	7300.23	153.212	7301.84	1.2023	541.664
45	39.811	7320.07	178.921	7322.26	1.40017	551.534
46	31.623	7341.03	191.48	7343.53	1.49414	553.239
47	25.119	7361.99	203.693	7364.81	1.58486	554.844
48	19.953	7384.74	223.243	7388.12	1.73154	556.749
49	15.849	7415.81	245.141	7419.86	1.89331	558.724
50	12.589	7440.74	267.165	7445.53	2.05637	560.749
51	10	7465.61	297.576	7471.54	2.28257	563.144
52	7.9433	7496.94	330.275	7504.22	2.52251	565.534
53	6.3096	7529.1	372.624	7538.31	2.83333	567.934
54	5.0119	7567.93	422.822	7579.73	3.1978	570.579
55	3.9811	7604.84	477.206	7619.8	3.59062	573.029
56	3.1623	7646.29	545.518	7665.73	4.08081	575.889
57	2.5119	7686.12	625.678	7711.54	4.65382	578.789
58	1.9953	7745.65	722.863	7779.31	5.33169	581.419
59	1.5849	7796.19	853.7	7842.79	6.24912	584.259
60	1.2589	7911.02	1003.4	7974.4	7.22855	587.194
61	1	7950.84	1162.97	8035.44	8.32165	592.465
62	0.79433	8042.45	1370.04	8158.31	9.66762	595.63
63	0.63096	8137.34	1613.61	8295.78	11.2161	599.435
64	0.50119	8238.13	1898.66	8454.09	12.9784	603.255
65	0.39811	8341.6	2296.8	8652.03	15.3945	607.635
66	0.31623	8489.62	2721.87	8915.28	17.7764	612.42
67	0.25119	8600.7	3317.15	9218.22	21.0908	617.835
68	0.19953	8748.48	3981.2	9611.76	24.469	624.055
69	0.15849	8951.7	4824.75	10169.1	28.3236	631.455
70	0.12589	9271.87	5819.86	10947.1	32.1161	640.045
71	0.1	9397.66	6975.59	11703.6	36.5853	650.176