File: data/20200619/Z_p32_2.txt
Index	Frequency (Hz)	Z' (Ω)	-Z'' (Ω)	Z (Ω)	-Phase (°)	Time (s)
1	1000000	3212.07	6167.23	6953.57	62.4882	257.558
2	794330	4550.55	6469.82	7909.87	54.8794	259.158
3	630960	6010.38	7056.4	9269.16	49.5769	260.893
4	501190	7505.2	7721.56	10768	45.8141	262.638
5	398110	9350.16	8900.17	12908.9	43.5876	268.554
6	316230	10908.1	9405.2	14402.9	40.7687	270.099
7	251190	12523	9486.72	15710.6	37.1456	275.484
8	199530	14323.3	9773.19	17339.9	34.3069	277.039
9	158490	16087.5	9905.94	18892.7	31.6228	278.569
10	125890	17863.3	9905.84	20426	29.0099	280.069
11	100000	19575.6	9747.2	21868	26.4699	281.634
12	79433	21230.7	9481.05	23251.5	24.0642	283.099
13	63096	22793.6	9103.31	24544.3	21.7707	284.609
14	50119	24293.1	8628.85	25780	19.5549	286.044
15	39811	25628.1	8105.73	26879.4	17.5513	287.464
16	31623	26837.7	7492.38	27863.9	15.5984	288.909
17	25119	27907.2	6895.8	28746.6	13.8796	290.409
18	19953	28852.1	6337.7	29540	12.3889	291.904
19	15849	29679.4	5790.44	30239	11.0397	293.429
20	12589	30428.8	5234.03	30875.7	9.75987	295.124
21	10000	31090.3	4787.15	31456.7	8.75342	297.809
22	7943.3	31674.4	4392.67	31977.5	7.89554	299.169
23	6309.6	32169.9	4043.22	32423	7.16357	300.614
24	5011.9	32652.6	3754.23	32867.7	6.55879	302.104
25	3981.1	33088.8	3510.6	33274.5	6.05621	303.569
26	3162.3	33488.5	3313.17	33652	5.65015	304.999
27	2511.9	33869	3156.25	34015.8	5.32401	306.474
28	1995.3	34239.9	3034.25	34374	5.06418	308.004
29	1584.9	34620	2944.5	34745	4.86142	309.424
30	1258.9	34992.2	2886.03	35111	4.71488	310.974
31	1000	35358.8	2845.79	35473.2	4.60143	312.544
32	794.33	35734.7	2830.27	35846.6	4.52852	314.609
33	630.96	36104.6	2832.55	36215.5	4.4859	316.089
34	501.19	36474.4	2849.2	36585.5	4.46659	317.619
35	398.11	36862.9	2885.79	36975.7	4.47623	318.909
36	316.23	37252.1	2932.94	37367.4	4.50174	320.334
37	251.19	37673.8	2998.7	37792.9	4.55095	321.775
38	199.53	38093.8	3072.4	38217.5	4.61112	323.285
39	158.49	38512.2	3159.42	38641.6	4.68987	324.745
40	125.89	38931.9	3260.24	39068.1	4.7869	326.445
41	100	39371.4	3374.67	39515.8	4.89906	327.985
42	79.433	39859.4	3507.34	40013.4	5.02867	329.57
43	63.096	40300.1	3660.17	40465.9	5.18953	331.285
44	50.119	40816.9	3816.24	40994.9	5.34143	333.195
45	39.811	41320.1	4019.23	41515.1	5.55572	342.52
46	31.623	41851.6	4237.74	42065.6	5.78185	344.34
47	25.119	42396	4484.35	42632.5	6.0379	346.1
48	19.953	43008.8	4790.31	43274.7	6.3554	348.245
49	15.849	43616.3	5131.93	43917.1	6.71061	350.48
50	12.589	44251.7	5511.02	44593.6	7.09894	352.695
51	10	44936	5954.25	45328.8	7.54801	355.225
52	7.9433	45632.1	6458	46086.8	8.05519	357.765
53	6.3096	46405.5	7043.75	46937	8.63088	360.265
54	5.0119	47256.3	7734.73	47885.1	9.29553	362.88
55	3.9811	48162.2	8540.14	48913.5	10.0552	365.565
56	3.1623	49146	9465.24	50049.2	10.9014	368.18
57	2.5119	50211.1	10525.7	51302.5	11.8394	370.9
58	1.9953	51435.6	11781.2	52767.6	12.9009	373.71
59	1.5849	52733.3	13209.6	54362.6	14.0631	376.651
60	1.2589	54155.5	14810.9	56144.3	15.2957	379.686
61	1	55777.4	16780	58246.8	16.7433	384.961
62	0.79433	57619.3	19030	60680.5	18.2769	388.566
63	0.63096	59640.6	21513.4	63402.1	19.8352	392.231
64	0.50119	61789.7	24496.1	66468.2	21.6255	396.236
65	0.39811	64263.3	28230.3	70190.6	23.7155	400.566
66	0.31623	67112.9	32339.4	74498.2	25.7278	405.591
67	0.25119	69877.8	37091.3	79111.8	27.9595	411.196
68	0.19953	73756.8	42629	85189.8	30.0265	417.696
69	0.15849	77697.5	49232.3	91982.2	32.36	425.101
70	0.12589	82051.4	57713.5	100316	35.1219	433.772
71	0.1	88283.4	66853.8	110740	37.1353	444.157