File: data/20200619/Z_p31_1.txt
Index	Frequency (Hz)	Z' (Ω)	-Z'' (Ω)	Z (Ω)	-Phase (°)	Time (s)
1	1000000	3314.83	5859.83	6732.44	60.5037	142.165
2	794330	4545.7	6115.86	7620.18	53.3779	143.82
3	630960	5937.13	6661.47	8923.27	48.2905	145.46
4	501190	7322.29	7186.12	10259.4	44.4623	147.146
5	398110	9131.44	8223.8	12288.8	42.0063	152.746
6	316230	10684.8	8532.33	13673.5	38.609	154.031
7	251190	12154.2	8612.61	14896.4	35.3218	159.516
8	199530	13779.6	8774.22	16336	32.4872	160.831
9	158490	15424.8	8753.07	17735.3	29.5735	162.201
10	125890	17015	8598.5	19064.3	26.8096	163.696
11	100000	18510.6	8297.04	20285	24.1434	165.261
12	79433	19906.4	7893.92	21414.5	21.6309	166.916
13	63096	21178.4	7403.85	22435.3	19.2694	168.441
14	50119	22330.9	6863.91	23362	17.086	169.831
15	39811	23352.3	6274.64	24180.6	15.0399	171.341
16	31623	24183.5	5649.58	24834.6	13.1492	172.691
17	25119	24891.2	5145.23	25417.4	11.6791	174.071
18	19953	25552.7	4676.68	25977.2	10.3715	175.491
19	15849	26095	4259.33	26440.3	9.27029	176.971
20	12589	26588.5	3866.95	26868.2	8.27491	178.476
21	10000	27055.6	3538.08	27285.9	7.45034	181.091
22	7943.3	27464.5	3271.53	27658.7	6.79297	182.366
23	6309.6	27850.2	3050.19	28016.7	6.2502	183.741
24	5011.9	28202.9	2867.28	28348.3	5.8051	185.121
25	3981.1	28540.7	2723.15	28670.3	5.45025	186.531
26	3162.3	28856.4	2613.4	28974.5	5.17492	188.076
27	2511.9	29157.1	2527.37	29266.5	4.95407	189.741
28	1995.3	29461.6	2468.15	29564.8	4.78877	191.146
29	1584.9	29777.1	2436.52	29876.6	4.67783	192.336
30	1258.9	30092.9	2417.55	30189.9	4.59306	193.711
31	1000	30423.1	2424.66	30519.5	4.55673	195.176
32	794.33	30742	2442.41	30838.9	4.54252	196.871
33	630.96	31052.8	2472.71	31151.1	4.55282	198.241
34	501.19	31401.6	2513.68	31502.1	4.57673	199.576
35	398.11	31742	2573.25	31846.1	4.6347	201.002
36	316.23	32111	2638.99	32219.2	4.69822	202.402
37	251.19	32480.7	2714.14	32593.9	4.77664	203.912
38	199.53	32861	2802.38	32980.3	4.87438	205.282
39	158.49	33239.8	2896.67	33365.8	4.98043	206.757
40	125.89	33642.4	3007.27	33776.5	5.10806	208.157
41	100	34061.7	3123.68	34204.6	5.23974	209.487
42	79.433	34484.4	3256.01	34637.8	5.39385	211.137
43	63.096	34945.3	3395.5	35109.9	5.54978	212.682
44	50.119	35418.7	3592.49	35600.5	5.79165	214.202
45	39.811	35912.1	3741.85	36106.5	5.94846	223.417
46	31.623	36420.2	3933.52	36632	6.16426	225.117
47	25.119	36957.9	4150.24	37190.2	6.40726	226.902
48	19.953	37540	4402.74	37797.3	6.68917	228.847
49	15.849	38132.2	4669.04	38417	6.98073	230.952
50	12.589	38760.3	4969.71	39077.6	7.3064	233.157
51	10	39424.7	5296.38	39778.9	7.6514	235.487
52	7.9433	40105.2	5668.24	40503.8	8.04458	237.837
53	6.3096	40847.3	6081.73	41297.6	8.46852	240.157
54	5.0119	41599.1	6554.58	42112.3	8.95422	242.587
55	3.9811	42395.1	7093.14	42984.4	9.4982	245.042
56	3.1623	43239.8	7706.48	43921.2	10.1055	247.587
57	2.5119	44191.2	8462.11	44994.1	10.8403	250.257
58	1.9953	45134.4	9277.21	46078	11.6151	252.982
59	1.5849	46183.4	10275.8	47312.8	12.5439	255.718
60	1.2589	47309.8	11427.7	48670.4	13.5796	258.533
61	1	48493	12806.3	50155.5	14.7932	263.623
62	0.79433	49811.3	14386.9	51847.3	16.1102	266.783
63	0.63096	51306	16197.2	53802	17.5208	270.313
64	0.50119	52771.4	18446.1	55902.4	19.2669	274.148
65	0.39811	54546.4	21071.8	58475	21.122	278.393
66	0.31623	56367	24424.2	61431.1	23.4274	283.143
67	0.25119	58971.5	28071.4	65311.9	25.4552	288.663
68	0.19953	61626.3	32707	69767.8	27.9563	295.033
69	0.15849	64582.9	37710.2	74786.5	30.2808	302.293
70	0.12589	67402.8	43892	80434.1	33.0718	310.854
71	0.1	71630.8	52018.7	88526.3	35.9873	321.219