File: data/20200619/Z_p36_1.txt
Index	Frequency (Hz)	Z' (Ω)	-Z'' (Ω)	Z (Ω)	-Phase (°)	Time (s)
1	1000000	3413.06	2797.95	4413.34	39.3441	141.013
2	794330	3864.7	2530.8	4619.62	33.2189	142.418
3	630960	4364.45	2396.27	4979.01	28.7687	143.793
4	501190	4851.66	2288	5364.1	25.2482	145.303
5	398110	5358.93	2101.52	5756.26	21.4128	150.349
6	316230	5721.75	1942.49	6042.49	18.7519	151.659
7	251190	5950.2	1686.62	6184.62	15.8257	155.774
8	199530	6236.47	1534.52	6422.48	13.8234	157.039
9	158490	6475.22	1373.49	6619.29	11.9758	158.414
10	125890	6667.23	1221.16	6778.14	10.3792	159.704
11	100000	6822.78	1075.21	6906.98	8.95563	161.194
12	79433	6954.61	944.284	7018.42	7.73224	162.479
13	63096	7057.67	823.306	7105.53	6.65372	163.754
14	50119	7149	717.104	7184.87	5.72809	165.069
15	39811	7222.67	623.958	7249.57	4.93746	166.469
16	31623	7277.08	540.235	7297.1	4.24573	167.729
17	25119	7332.09	476.11	7347.54	3.71529	169.064
18	19953	7378.98	424.931	7391.2	3.29584	170.349
19	15849	7417.23	375.517	7426.73	2.89828	171.624
20	12589	7455.02	336.009	7462.59	2.58066	172.914
21	10000	7485.71	306.227	7491.98	2.34256	174.219
22	7943.3	7519.47	276.857	7524.57	2.1086	175.494
23	6309.6	7548.17	252.314	7552.39	1.91452	176.764
24	5011.9	7576.94	232.685	7580.51	1.75898	178.054
25	3981.1	7600.54	216.5	7603.63	1.63162	179.354
26	3162.3	7624.13	201.794	7626.8	1.51614	180.659
27	2511.9	7646.41	190.099	7648.78	1.42415	181.944
28	1995.3	7665.47	179.645	7667.57	1.34251	183.289
29	1584.9	7692.44	170.67	7694.33	1.271	184.564
30	1258.9	7712.33	164.045	7714.08	1.21852	185.824
31	1000	7736.14	156.217	7737.71	1.15683	187.109
32	794.33	7753.48	149.39	7754.92	1.10381	188.504
33	630.96	7772.93	145.828	7774.29	1.0748	189.814
34	501.19	7791.51	141.347	7792.79	1.0393	191.169
35	398.11	7808.66	137.329	7809.87	1.00754	192.344
36	316.23	7831.11	135.828	7832.28	0.993675	193.614
37	251.19	7846.96	133.206	7848.09	0.972531	194.984
38	199.53	7869.81	134.913	7870.97	0.982128	196.259
39	158.49	7884.14	135.521	7885.31	0.984766	197.679
40	125.89	7901.02	140.631	7902.27	1.01971	199.104
41	100	7921.59	144.846	7922.92	1.04753	200.404
42	79.433	7935.11	149.441	7936.52	1.07892	201.81
43	63.096	7955.17	154.127	7956.66	1.10994	203.335
44	50.119	8028.57	151.227	8029.99	1.0791	204.79
45	39.811	7990.98	174.262	7992.88	1.24927	214.05
46	31.623	8012.99	190.159	8015.24	1.35945	215.665
47	25.119	8032.39	203.541	8034.97	1.45157	217.23
48	19.953	8058.56	226.799	8061.76	1.6121	219.115
49	15.849	8085.77	249.931	8089.63	1.77045	220.995
50	12.589	8117.41	277.016	8122.14	1.95453	223.105
51	10	8143.41	309.945	8149.31	2.17967	225.38
52	7.9433	8166.63	349.27	8174.1	2.44893	227.625
53	6.3096	8204.16	394.492	8213.64	2.75291	229.925
54	5.0119	8241.6	449.647	8253.86	3.12286	232.305
55	3.9811	8279.54	516.59	8295.64	3.57026	234.71
56	3.1623	8322.59	587.993	8343.34	4.04124	237.235
57	2.5119	8374.3	683.867	8402.18	4.66856	239.84
58	1.9953	8423.43	796.567	8461.01	5.40215	242.49
59	1.5849	8518.6	973.008	8573.99	6.51617	245.285
60	1.2589	8516.89	1117.69	8589.92	7.47631	248.2
61	1	8612.98	1334.01	8715.67	8.80421	253.575
62	0.79433	8702.56	1589.84	8846.59	10.353	256.831
63	0.63096	8805.91	1876.61	9003.65	12.0303	260.371
64	0.50119	8896.88	2268.29	9181.49	14.303	268.841
65	0.39811	9001.03	2726.58	9404.93	16.8526	281.311
66	0.31623	9151.56	3293.76	9726.25	19.7944	287.201
67	0.25119	9318.48	3991.87	10137.5	23.1894	296.611
68	0.19953	9445.22	4908.24	10644.4	27.4588	305.401
69	0.15849	9675.32	5900.61	11332.7	31.3774	314.997
70	0.12589	9970.97	7151.57	12270.5	35.6496	323.742
71	0.1	10145.2	8798.78	13429.2	40.9346	334.747