File: data/20200619/Z_p34_3.txt
Index	Frequency (Hz)	Z' (Ω)	-Z'' (Ω)	Z (Ω)	-Phase (°)	Time (s)
1	1000000	3610.67	3366.35	4936.52	42.9944	712.164
2	794330	4236.12	3124.8	5263.94	36.4145	714.225
3	630960	4871.8	3001.01	5721.93	31.6329	716.241
4	501190	5501.39	2895.53	6216.86	27.7591	718.372
5	398110	6198.43	2765.82	6787.52	24.0471	725.256
6	316230	6714.79	2576.01	7191.96	20.9884	727.302
7	251190	7024.46	2300.81	7391.67	18.1358	733.986
8	199530	7422.46	2121.67	7719.74	15.9523	735.927
9	158490	7765.7	1937.39	8003.72	14.0082	737.983
10	125890	8044.5	1740.55	8230.64	12.2087	739.914
11	100000	8279.12	1553.1	8423.54	10.6248	741.95
12	79433	8480.25	1381.74	8592.08	9.25425	743.891
13	63096	8646.57	1221.9	8732.48	8.04358	745.912
14	50119	8786.59	1075.78	8852.2	6.98024	747.973
15	39811	8907.78	948.514	8958.14	6.07804	750.019
16	31623	9001.1	833.441	9039.6	5.29011	752.05
17	25119	9083.27	738.125	9113.22	4.64576	753.961
18	19953	9163.49	659.783	9187.21	4.11826	755.902
19	15849	9233.07	590.789	9251.95	3.66115	757.988
20	12589	9293.53	528.613	9308.55	3.25546	759.904
21	10000	9347.77	477.519	9359.95	2.92434	761.961
22	7943.3	9399.24	433.69	9409.24	2.64181	763.912
23	6309.6	9449.65	398.01	9458.03	2.41181	765.848
24	5011.9	9488.33	365.927	9495.38	2.20858	767.744
25	3981.1	9530.76	336.36	9536.69	2.02125	769.71
26	3162.3	9566.51	313.232	9571.64	1.87534	771.746
27	2511.9	9606.21	291.638	9610.64	1.73893	773.732
28	1995.3	9646.85	274.514	9650.75	1.62999	775.673
29	1584.9	9683.68	259.547	9687.16	1.5353	777.554
30	1258.9	9703.82	245.503	9706.93	1.44925	783.813
31	1000	9732.4	233.927	9735.21	1.37689	785.759
32	794.33	9765.86	222.174	9768.39	1.30326	787.84
33	630.96	9795.3	215.33	9797.67	1.25933	789.741
34	501.19	9820.3	207.277	9822.49	1.20916	791.797
35	398.11	9852.26	200.906	9854.31	1.16821	793.703
36	316.23	9876.52	196.54	9878.48	1.14002	795.604
37	251.19	9900.58	195.221	9902.5	1.12962	797.585
38	199.53	9931.16	194.627	9933.07	1.12272	799.556
39	158.49	9955.68	195.182	9957.59	1.12315	801.557
40	125.89	9977.55	199.6	9979.55	1.14604	803.708
41	100	9997.22	204.977	9999.32	1.17459	805.709
42	79.433	10030.6	208.29	10032.7	1.18961	807.775
43	63.096	10053.3	218.542	10055.7	1.24532	810.006
44	50.119	10060	257.177	10063.3	1.46441	812.197
45	39.811	10105.9	244.717	10108.8	1.38717	821.994
46	31.623	10133.9	258.251	10137.2	1.4598	824.255
47	25.119	10164.3	280.016	10168.1	1.57805	826.696
48	19.953	10200.9	306.001	10205.5	1.71821	829.182
49	15.849	10227.4	338.888	10233	1.89781	831.743
50	12.589	10275.9	376.425	10282.8	2.09791	834.364
51	10	10308.6	417.349	10317.1	2.31838	837.245
52	7.9433	10356	466.836	10366.5	2.58109	840.176
53	6.3096	10402.2	526.865	10415.5	2.89952	843.312
54	5.0119	10439.5	593.679	10456.4	3.25481	846.573
55	3.9811	10500.7	675.315	10522.4	3.67972	849.724
56	3.1623	10554.5	769.955	10582.6	4.17235	852.875
57	2.5119	10637.6	899.898	10675.5	4.8355	856.181
58	1.9953	10679.8	1057.22	10732	5.65346	859.507
59	1.5849	10775.3	1213.18	10843.4	6.42378	863.038
60	1.2589	10874.6	1465.37	10972.9	7.67446	866.554
61	1	10972.4	1687.69	11101.4	8.74427	872.787
62	0.79433	11099.1	1997.88	11277.4	10.2042	876.598
63	0.63096	11236.6	2346.06	11478.9	11.7933	880.774
64	0.50119	11356.5	2825.47	11702.7	13.9713	885.255
65	0.39811	11543.1	3396.49	12032.4	16.3962	890.171
66	0.31623	11714.9	4066.43	12400.6	19.1428	895.587
67	0.25119	12011.8	4931.44	12984.7	22.3206	901.653
68	0.19953	12305	5804.49	13605.3	25.2541	908.689
69	0.15849	12718.5	7007.89	14521.4	28.8547	916.585
70	0.12589	13062.4	8407.46	15534.2	32.7669	925.752
71	0.1	13421.9	10225.1	16873.1	37.301	936.718