File: data/20200619/Z_p33_3.txt
Index	Frequency (Hz)	Z' (Ω)	-Z'' (Ω)	Z (Ω)	-Phase (°)	Time (s)
1	1000000	3421.34	3029.46	4569.82	41.5236	805.497
2	794330	3949.09	2788.96	4834.62	35.2308	807.613
3	630960	4502.95	2662.81	5231.36	30.5979	809.869
4	501190	5069.27	2558.6	5678.37	26.7814	812
5	398110	5640	2420.57	6137.48	23.228	819.025
6	316230	6083.57	2249.45	6486.13	20.2923	820.991
7	251190	6347.88	1995.71	6654.2	17.4527	827.99
8	199530	6692.73	1837.88	6940.49	15.3554	830.001
9	158490	6985.63	1660.85	7180.35	13.3739	832.027
10	125890	7225.72	1487.95	7377.33	11.6359	834.233
11	100000	7426.7	1322.82	7543.59	10.0994	836.319
12	79433	7591.31	1169.57	7680.87	8.75849	838.395
13	63096	7727.09	1030.15	7795.45	7.59369	840.451
14	50119	7842.56	903.851	7894.48	6.5743	842.502
15	39811	7939.78	791.157	7979.1	5.69043	844.568
16	31623	8017.36	689.695	8046.97	4.91678	846.504
17	25119	8086.55	613.724	8109.81	4.34011	848.46
18	19953	8147.96	546.455	8166.27	3.83688	850.391
19	15849	8201.51	487.368	8215.98	3.40076	852.327
20	12589	8254.39	437.171	8265.96	3.03168	854.253
21	10000	8296.91	396.686	8306.39	2.7373	856.209
22	7943.3	8343.38	358.416	8351.07	2.45981	858.165
23	6309.6	8378.98	329.962	8385.48	2.25513	860.186
24	5011.9	8415.32	303.262	8420.78	2.06387	862.107
25	3981.1	8448.14	282.351	8452.85	1.91421	864.173
26	3162.3	8477.91	263.836	8482.02	1.7825	866.204
27	2511.9	8509.11	247.808	8512.71	1.66813	868.135
28	1995.3	8537.39	235.073	8540.63	1.57722	870.282
29	1584.9	8572.4	222.121	8575.28	1.48427	872.258
30	1258.9	8596.3	212.04	8598.91	1.413	874.179
31	1000	8624	202.428	8626.37	1.34463	876.26
32	794.33	8652.74	194.634	8654.93	1.28859	878.331
33	630.96	8674.56	189.292	8676.63	1.25008	880.292
34	501.19	8699.91	183.103	8701.83	1.2057	882.428
35	398.11	8725.92	179.164	8727.76	1.17626	884.294
36	316.23	8746.51	177.672	8748.32	1.16372	886.275
37	251.19	8769	175.753	8770.77	1.1482	888.361
38	199.53	8795.66	177.165	8797.45	1.15391	890.397
39	158.49	8813.94	180.015	8815.78	1.17004	892.408
40	125.89	8836.64	184.648	8838.57	1.19706	894.614
41	100	8863	188.84	8865.01	1.22059	896.62
42	79.433	8886.36	197.698	8888.56	1.27447	898.701
43	63.096	8919.17	205.369	8921.54	1.31904	900.872
44	50.119	8891.59	210.357	8894.08	1.35525	930.292
45	39.811	8964.07	233.171	8967.1	1.49002	940.013
46	31.623	8990.74	245.36	8994.09	1.56323	942.439
47	25.119	9024.16	264.353	9028.03	1.67794	944.735
48	19.953	9057.62	291.621	9062.32	1.84407	947.421
49	15.849	9084.16	316.98	9089.69	1.99845	950.097
50	12.589	9122.65	346.891	9129.25	2.17764	952.688
51	10	9161.77	391.919	9170.15	2.44948	955.619
52	7.9433	9201.64	437.197	9212.02	2.72024	958.625
53	6.3096	9242.76	492.147	9255.85	3.04794	961.656
54	5.0119	9292.76	552.761	9309.19	3.40411	964.682
55	3.9811	9349.23	627.013	9370.23	3.83684	967.768
56	3.1623	9394.37	725.113	9422.31	4.41368	970.914
57	2.5119	9461.43	826.341	9497.45	4.99142	974.15
58	1.9953	9538.83	975.424	9588.57	5.83867	977.462
59	1.5849	9609.2	1134.26	9675.91	6.73196	981.028
60	1.2589	9693.38	1290.44	9778.9	7.58296	984.634
61	1	9795.5	1527.03	9913.81	8.86056	991.181
62	0.79433	9926.09	1791.73	10086.5	10.2321	995.067
63	0.63096	10032	2121.74	10253.9	11.942	999.278
64	0.50119	10183.6	2510.23	10488.4	13.8472	1003.75
65	0.39811	10319.3	2989.33	10743.6	16.1554	1008.64
66	0.31623	10537.2	3601.53	11135.7	18.8701	1014.06
67	0.25119	10721.6	4286.81	11546.8	21.793	1020.12
68	0.19953	10974.7	5257.42	12169	25.5967	1027.07
69	0.15849	11194	6284.78	12837.6	29.3117	1035.2
70	0.12589	11519.9	7611.78	13807.5	33.4548	1044.52
71	0.1	12041	9222.26	15166.9	37.4487	1055.42