File: data/20200619/Z_p31_3.txt
Index	Frequency (Hz)	Z' (Ω)	-Z'' (Ω)	Z (Ω)	-Phase (°)	Time (s)
1	1000000	3241.58	5915.36	6745.32	61.2775	788.29
2	794330	4563.67	6138.4	7648.99	53.3706	790.465
3	630960	5930.37	6694.81	8943.69	48.465	792.75
4	501190	7330.58	7189.05	10267.4	44.4415	795.135
5	398110	9113.16	8223.2	12274.8	42.0613	803.94
6	316230	10767.2	8625.25	13795.9	38.6971	806.005
7	251190	12143.8	8625.5	14895.4	35.3853	813.6
8	199530	13810.6	8803.76	16378	32.5161	815.761
9	158490	15426.4	8756.63	17738.5	29.5809	817.941
10	125890	17017.9	8592.18	19064	26.7887	820.066
11	100000	18506.2	8320.26	20290.5	24.2084	822.346
12	79433	19885.9	7899.94	21397.6	21.6661	824.576
13	63096	21200.7	7436.2	22467	19.3285	826.761
14	50119	22327.1	6887.15	23365.2	17.1432	829.021
15	39811	23362.8	6283.29	24192.9	15.0532	831.376
16	31623	24231.1	5713.94	24895.7	13.2685	833.411
17	25119	24923.8	5180.14	25456.4	11.7412	835.361
18	19953	25587.6	4693.62	26014.5	10.3944	837.481
19	15849	26166.7	4269.67	26512.8	9.26737	839.476
20	12589	26647	3872.58	26926.9	8.26884	841.436
21	10000	27096.1	3548.04	27327.4	7.46002	845.006
22	7943.3	27514.1	3282.53	27709.2	6.80343	847.006
23	6309.6	27883.5	3058.25	28050.7	6.25916	849.111
24	5011.9	28247.5	2876.83	28393.7	5.81516	851.181
25	3981.1	28578.2	2732.44	28708.5	5.46161	853.141
26	3162.3	28883	2616.44	29001.2	5.17616	855.101
27	2511.9	29203	2529.05	29312.3	4.94961	857.166
28	1995.3	29522	2479.02	29625.9	4.79998	859.126
29	1584.9	29812.3	2439.87	29911.9	4.67873	861.041
30	1258.9	30135.6	2424.47	30233	4.59966	863.136
31	1000	30476.3	2429.15	30573	4.55719	865.206
32	794.33	30783.8	2447.91	30881	4.54657	867.341
33	630.96	31123.7	2479.61	31222.3	4.5551	869.332
34	501.19	31463.6	2521.21	31564.5	4.58137	871.327
35	398.11	31800.9	2574.6	31904.9	4.62857	873.372
36	316.23	32153.2	2643.8	32261.7	4.70059	875.367
37	251.19	32541.9	2718.23	32655.2	4.77485	877.402
38	199.53	32909.5	2805.86	33028.9	4.87324	879.362
39	158.49	33303.4	2906.45	33430	4.98768	881.492
40	125.89	33712.8	3012.31	33847.1	5.10595	883.532
41	100	34125.4	3130.66	34268.7	5.24164	885.637
42	79.433	34567.1	3262.75	34720.7	5.3921	887.857
43	63.096	35004.5	3413.09	35170.5	5.56898	889.962
44	50.119	35488.9	3560.65	35667.1	5.72939	892.042
45	39.811	35987.5	3749.65	36182.3	5.94838	901.847
46	31.623	36493.9	3941.41	36706.1	6.16415	904.237
47	25.119	37041.5	4155.68	37273.9	6.40123	906.627
48	19.953	37602.6	4413.85	37860.8	6.69483	909.317
49	15.849	38200.2	4679.19	38485.7	6.98345	911.912
50	12.589	38838.7	4978.93	39156.5	7.3052	914.642
51	10	39483.4	5304.76	39838.1	7.65211	917.642
52	7.9433	40175.9	5673.98	40574.6	8.03863	920.622
53	6.3096	40938.9	6095.08	41390.1	8.46814	923.668
54	5.0119	41678.1	6573.18	42193.2	8.96247	926.683
55	3.9811	42492.5	7105.4	43082.5	9.4929	929.733
56	3.1623	43340.4	7722.84	44023.1	10.1035	932.903
57	2.5119	44258.9	8443.73	45057.1	10.8011	936.173
58	1.9953	45205.1	9300.53	46152	11.6258	939.443
59	1.5849	46272.7	10298.6	47404.9	12.5474	943.008
60	1.2589	47395.4	11465.1	48762.4	13.5988	946.478
61	1	48607.3	12808.7	50266.6	14.7627	952.913
62	0.79433	49970.1	14377	51997.2	16.0511	956.843
63	0.63096	51323.5	16228.8	53828.2	17.5473	961.148
64	0.50119	52971	18513.6	56113.1	19.2647	965.578
65	0.39811	54727.9	21140	58668.9	21.1203	970.513
66	0.31623	56729.9	24521.6	61802.8	23.3765	975.958
67	0.25119	59092.4	28138.3	65449.7	25.4626	982.064
68	0.19953	61361.8	32888.6	69619.9	28.1903	988.989
69	0.15849	64139.3	37930.8	74515.7	30.5993	996.944
70	0.12589	67504.1	44456.8	80828.3	33.3681	1006.13
71	0.1	72007	51970.1	88802.5	35.8194	1017.04