File: data/20200619/Z_p37_1.txt
Index	Frequency (Hz)	Z' (Ω)	-Z'' (Ω)	Z (Ω)	-Phase (°)	Time (s)
1	1000000	3682.95	3290.11	4938.51	41.7756	140.644
2	794330	4276.37	3052.27	5253.92	35.5174	142.034
3	630960	4917.41	2938.17	5728.33	30.8585	143.404
4	501190	5535.19	2796.15	6201.35	26.8011	144.894
5	398110	6191.26	2664.01	6740.08	23.2815	149.875
6	316230	6668.71	2501.71	7122.52	20.5632	151.155
7	251190	6976.65	2189.03	7312.01	17.42	155.2
8	199530	7348.98	2011.82	7619.37	15.3099	156.565
9	158490	7664.39	1818.13	7877.09	13.3449	158.01
10	125890	7932.03	1636.3	8099.05	11.6561	159.24
11	100000	8152.71	1457.78	8282.01	10.1379	160.635
12	79433	8335.1	1290.15	8434.36	8.79872	161.92
13	63096	8488.89	1136.94	8564.69	7.6284	163.385
14	50119	8614.23	997.921	8671.84	6.60801	164.8
15	39811	8729.84	877.019	8773.78	5.73681	166.28
16	31623	8811.94	773.552	8845.83	5.01682	167.595
17	25119	8890.93	681.137	8916.98	4.38089	168.895
18	19953	8951.45	606.797	8971.99	3.87801	170.185
19	15849	9021.95	541.422	9038.18	3.43429	171.51
20	12589	9076.22	487.824	9089.32	3.07654	172.795
21	10000	9129.38	441.07	9140.03	2.76599	174.055
22	7943.3	9169.46	401.377	9178.24	2.50642	175.3
23	6309.6	9213.9	368.886	9221.28	2.29266	176.63
24	5011.9	9254.62	340.758	9260.9	2.10869	177.975
25	3981.1	9289.89	316.821	9295.29	1.95325	179.27
26	3162.3	9328.4	299.017	9333.19	1.83596	180.535
27	2511.9	9365.33	281.434	9369.56	1.72126	181.83
28	1995.3	9410.05	268.793	9413.89	1.63618	183.975
29	1584.9	9431.96	257.684	9435.48	1.56495	186.675
30	1258.9	9455.46	247.856	9458.7	1.50155	187.865
31	1000	9489.56	242.166	9492.65	1.46182	189.12
32	794.33	9519.71	235.557	9522.63	1.41744	190.515
33	630.96	9550.93	231.022	9553.72	1.38563	191.8
34	501.19	9580.24	229.294	9582.99	1.37106	193.135
35	398.11	9614.3	226.627	9616.98	1.35032	194.385
36	316.23	9635.08	229.49	9637.81	1.36442	195.66
37	251.19	9666.92	235.182	9669.78	1.39364	197.02
38	199.53	9697.19	238.822	9700.13	1.4108	198.35
39	158.49	9728.39	246.739	9731.52	1.45287	199.68
40	125.89	9762.76	258.15	9766.17	1.51468	201
41	100	9791.74	272.292	9795.53	1.59289	202.491
42	79.433	9826.94	294.231	9831.34	1.71499	203.941
43	63.096	9862.29	319.869	9867.48	1.85765	205.396
44	50.119	9921.16	330.843	9926.67	1.90995	206.911
45	39.811	9941.85	369.653	9948.72	2.12936	216.031
46	31.623	9982.69	404.159	9990.87	2.31841	217.676
47	25.119	10038.3	444.632	10048.2	2.53617	219.316
48	19.953	10091.3	489.197	10103.1	2.77537	221.241
49	15.849	10151.1	539.169	10165.4	3.04036	223.211
50	12.589	10215.3	604.17	10233.2	3.38473	225.271
51	10	10285.3	660.327	10306.5	3.67341	227.541
52	7.9433	10360.2	739.869	10386.6	4.08482	229.796
53	6.3096	10438.9	816.119	10470.8	4.47032	232.266
54	5.0119	10533	923.892	10573.4	5.01282	234.646
55	3.9811	10614.7	1031.71	10664.8	5.55149	237.051
56	3.1623	10724.1	1179.09	10788.7	6.27433	239.511
57	2.5119	10782.4	1323.84	10863.4	6.99959	242.211
58	1.9953	11012.8	1528.95	11118.4	7.90411	244.836
59	1.5849	11126.6	1802.76	11271.7	9.20323	247.576
60	1.2589	11151.5	2065.08	11341.1	10.4914	250.501
61	1	11372.4	2392.96	11621.4	11.8827	255.547
62	0.79433	11597.2	2806.9	11932	13.6058	258.692
63	0.63096	11768.7	3307.18	12224.5	15.6962	262.202
64	0.50119	12017.1	3912.77	12638	18.0353	266.017
65	0.39811	12265.9	4671.82	13125.5	20.8508	270.272
66	0.31623	12614.7	5531.67	13774.2	23.678	275.002
67	0.25119	12924.5	6649.18	14534.6	27.2242	280.497
68	0.19953	13341	7920.98	15515.3	30.6989	286.757
69	0.15849	13890.5	9533.99	16847.6	34.4645	293.922
70	0.12589	14643.4	11345.8	18524.5	37.7689	302.532
71	0.1	15133.6	13523.8	20295.8	41.7849	312.708