File: data/20200619/Z_p34_1.txt
Index	Frequency (Hz)	Z' (Ω)	-Z'' (Ω)	Z (Ω)	-Phase (°)	Time (s)
1	1000000	3627.51	3358.5	4943.52	42.7949	77.9452
2	794330	4225.27	3114.69	5249.21	36.3961	79.4152
3	630960	4867.91	2985.23	5710.36	31.5186	80.8003
4	501190	5487.08	2878.33	6196.2	27.6799	82.2703
5	398110	6187.82	2751.17	6771.86	23.9704	86.3404
6	316230	6681.82	2585.88	7164.74	21.1565	87.6154
7	251190	7003.87	2290.71	7368.95	18.111	91.6105
8	199530	7399.25	2115.2	7695.64	15.9535	92.9205
9	158490	7734.18	1923.79	7969.85	13.9682	94.2105
10	125890	8019.28	1731.82	8204.15	12.1863	95.5405
11	100000	8252.29	1546.48	8395.95	10.6141	96.9356
12	79433	8452.24	1376.53	8563.59	9.25	98.1906
13	63096	8616.72	1216.89	8702.22	8.03843	99.5756
14	50119	8758.25	1073.05	8823.74	6.98501	101.006
15	39811	8878.03	941.887	8927.85	6.05596	102.421
16	31623	8970.79	827.242	9008.85	5.26863	103.691
17	25119	9056.21	735.376	9086.02	4.64231	104.951
18	19953	9131.05	654.797	9154.5	4.10172	106.211
19	15849	9200.75	585.183	9219.34	3.63921	107.511
20	12589	9257.59	526.73	9272.56	3.25645	108.821
21	10000	9310.28	475.237	9322.4	2.92209	110.076
22	7943.3	9363.67	432.809	9373.67	2.64645	111.346
23	6309.6	9409.82	392.951	9418.02	2.39126	112.701
24	5011.9	9454.85	362.449	9461.79	2.19534	114.026
25	3981.1	9492.23	334.905	9498.14	2.02067	115.346
26	3162.3	9529.39	311.357	9534.47	1.87138	116.591
27	2511.9	9563.71	290.624	9568.12	1.74058	117.831
28	1995.3	9606.85	272.824	9610.72	1.6267	119.221
29	1584.9	9647.68	257.594	9651.12	1.52944	120.506
30	1258.9	9665.35	245.912	9668.48	1.45744	124.136
31	1000	9696.5	232.384	9699.28	1.37287	125.306
32	794.33	9728.11	222.406	9730.65	1.30968	126.691
33	630.96	9751.74	213.396	9754.07	1.25359	127.946
34	501.19	9787.78	205.918	9789.94	1.20522	129.266
35	398.11	9812.78	198.846	9814.79	1.16088	130.581
36	316.23	9840.09	195.771	9842.04	1.13976	131.911
37	251.19	9861.58	193.184	9863.48	1.12226	133.246
38	199.53	9882.42	192.266	9884.29	1.11457	134.426
39	158.49	9914.24	193.646	9916.13	1.11896	135.741
40	125.89	9939.37	197.871	9941.34	1.14049	137.121
41	100	9963.2	200.475	9965.22	1.15273	138.426
42	79.433	9984.86	208.49	9987.04	1.1962	139.801
43	63.096	10012.1	218.071	10014.5	1.24775	141.241
44	50.119	10098	260.485	10101.4	1.47765	142.736
45	39.811	10065.9	239.394	10068.7	1.3624	151.832
46	31.623	10089.7	259.512	10093	1.47335	153.492
47	25.119	10121.5	278.544	10125.3	1.57639	155.167
48	19.953	10153.2	304.806	10157.8	1.71954	157.087
49	15.849	10187.3	342.815	10193.1	1.92735	159.042
50	12.589	10230	372.039	10236.7	2.08279	161.017
51	10	10267	412.163	10275.2	2.29888	163.307
52	7.9433	10308.3	464.975	10318.8	2.58268	165.647
53	6.3096	10355.1	523.052	10368.3	2.89165	167.967
54	5.0119	10405.7	596.849	10422.8	3.28278	170.442
55	3.9811	10453.5	681.671	10475.7	3.73098	172.867
56	3.1623	10519.6	772.413	10547.9	4.19946	175.432
57	2.5119	10579.4	915.823	10618.9	4.94758	178.037
58	1.9953	10667.2	1027.92	10716.6	5.50419	180.582
59	1.5849	10732.7	1181.08	10797.5	6.27984	183.447
60	1.2589	10834.1	1452.27	10931	7.63473	186.337
61	1	10927.6	1681.8	11056.2	8.74941	191.472
62	0.79433	11070.1	1983.78	11246.5	10.1596	194.577
63	0.63096	11173.3	2352.02	11418.2	11.8874	198.132
64	0.50119	11347.3	2804.85	11688.8	13.8842	201.888
65	0.39811	11529.7	3373.25	12013	16.308	206.053
66	0.31623	11727	4006.83	12392.6	18.8641	210.813
67	0.25119	11981.5	4901.62	12945.3	22.2495	216.223
68	0.19953	12238.9	5885.17	13580.4	25.6809	222.518
69	0.15849	12623.8	7098.03	14482.5	29.3478	229.868
70	0.12589	13115.5	8416.09	15583.6	32.6879	238.413
71	0.1	13398.2	10183.6	16829.1	37.2373	248.668