File: data/20200619/Z_p33_1.txt
Index	Frequency (Hz)	Z' (Ω)	-Z'' (Ω)	Z (Ω)	-Phase (°)	Time (s)
1	1000000	3428.65	3004.37	4558.72	41.2266	160.243
2	794330	3918.99	2783.12	4806.69	35.381	161.938
3	630960	4504.12	2654.43	5228.11	30.5123	163.378
4	501190	5024.11	2531.75	5625.96	26.7445	164.968
5	398110	5619.6	2417.15	6117.39	23.2739	170.163
6	316230	6044.62	2240.07	6446.35	20.3341	171.573
7	251190	6333.21	1989.4	6638.32	17.4387	175.853
8	199530	6683.05	1824.58	6927.64	15.2705	177.298
9	158490	6965.64	1655.36	7159.64	13.3682	178.678
10	125890	7209.23	1482.42	7360.06	11.6197	180.113
11	100000	7408.28	1316.19	7524.29	10.0743	181.618
12	79433	7572.57	1170.84	7662.55	8.78921	182.958
13	63096	7704.45	1025.36	7772.38	7.58075	184.423
14	50119	7819.88	899.883	7871.48	6.56451	185.828
15	39811	7924.72	789.512	7963.95	5.6894	187.188
16	31623	7998.2	687.87	8027.72	4.91552	188.568
17	25119	8063.5	612.535	8086.73	4.34407	189.968
18	19953	8130.84	543.435	8148.98	3.82375	191.343
19	15849	8183.54	487.396	8198.04	3.4084	192.698
20	12589	8233.91	437.704	8245.54	3.04291	194.113
21	10000	8276.23	394.123	8285.6	2.72643	195.493
22	7943.3	8319.52	358.519	8327.24	2.46756	196.888
23	6309.6	8355.06	328.736	8361.53	2.25318	198.318
24	5011.9	8391.34	303.801	8396.84	2.07344	199.643
25	3981.1	8427.08	281.667	8431.79	1.91435	200.964
26	3162.3	8455.5	261.227	8459.54	1.76955	202.414
27	2511.9	8492.69	246.44	8496.27	1.66214	203.859
28	1995.3	8517.46	233.528	8520.67	1.57052	205.554
29	1584.9	8547.42	221.719	8550.29	1.48591	206.904
30	1258.9	8571.53	211.016	8574.13	1.41023	208.234
31	1000	8597.23	201.889	8599.6	1.34523	209.519
32	794.33	8625.68	195.005	8627.89	1.29509	210.804
33	630.96	8645.35	187.609	8647.38	1.24315	212.139
34	501.19	8680.11	183.722	8682.06	1.21254	213.594
35	398.11	8699.12	180.136	8700.99	1.18628	215.054
36	316.23	8723.26	177.038	8725.05	1.16265	216.589
37	251.19	8743.62	175.837	8745.39	1.15208	218.084
38	199.53	8771.6	175.585	8773.36	1.14676	219.609
39	158.49	8792.91	179.696	8794.75	1.17076	221.084
40	125.89	8815.93	182.695	8817.83	1.18719	222.639
41	100	8840.4	188.557	8842.41	1.22187	223.929
42	79.433	8862.51	196.179	8864.68	1.26808	225.339
43	63.096	8897.12	205.19	8899.48	1.32115	228.444
44	50.119	8931.47	199.232	8933.69	1.27787	246.649
45	39.811	8940.24	229.951	8943.2	1.47337	255.725
46	31.623	8967.36	247.475	8970.78	1.58081	257.395
47	25.119	8998.68	263.823	9002.54	1.67932	259.065
48	19.953	9027.24	288.932	9031.86	1.83322	261
49	15.849	9063.81	317.237	9069.36	2.00456	263.155
50	12.589	9096.79	349.458	9103.5	2.19997	265.13
51	10	9133.72	387.816	9141.95	2.43131	267.33
52	7.9433	9163.39	437.036	9173.81	2.73058	269.64
53	6.3096	9216.61	492.318	9229.75	3.05763	272.045
54	5.0119	9263.62	549.891	9279.93	3.39711	274.555
55	3.9811	9313.51	627.877	9334.65	3.8568	277.01
56	3.1623	9364.93	728.915	9393.26	4.45062	279.465
57	2.5119	9438.79	817.378	9474.12	4.94934	282.145
58	1.9953	9446.06	966.223	9495.34	5.84039	285.045
59	1.5849	9547.63	1097.79	9610.53	6.55907	287.92
60	1.2589	9698.38	1323.03	9788.21	7.76823	290.865
61	1	9767.06	1527.08	9885.72	8.88627	296.03
62	0.79433	9892.7	1804.8	10056	10.3392	299.255
63	0.63096	10018.1	2101.71	10236.2	11.8483	302.865
64	0.50119	10132.8	2503.9	10437.6	13.8802	306.79
65	0.39811	10306.6	2983.83	10729.8	16.146	311.126
66	0.31623	10469.6	3568.35	11061	18.8206	316.101
67	0.25119	10712	4349.6	11561.4	22.0995	321.546
68	0.19953	10935.3	5242.48	12127	25.6135	327.836
69	0.15849	11271.6	6298.19	12911.8	29.1951	335.096
70	0.12589	11617.9	7471.12	13812.8	32.7439	343.741
71	0.1	11837.1	9145.12	14958.3	37.6891	354.031