File: data/20200619/Z_p32_1.txt
Index	Frequency (Hz)	Z' (Ω)	-Z'' (Ω)	Z (Ω)	-Phase (°)	Time (s)
1	1000000	3179.87	6016.27	6804.93	62.1415	23.9312
2	794330	4563.06	6440.82	7893.39	54.6839	25.3762
3	630960	6021.18	7105.25	9313.38	49.7212	26.8513
4	501190	7446.18	7741.71	10741.5	46.1147	28.4363
5	398110	9307.93	8897.96	12876.8	43.71	33.8064
6	316230	10843.9	9437.67	14375.7	41.0336	35.3064
7	251190	12503.1	9489.37	15696.3	37.1972	40.7915
8	199530	14340.6	9784.75	17360.7	34.3062	42.4415
9	158490	16073.1	9866.23	18859.7	31.5431	44.0466
10	125890	17857.8	9896.28	20416.6	28.994	45.5666
11	100000	19570.9	9736.64	21859.1	26.4506	47.1966
12	79433	21214.6	9444.55	23222	23.9982	48.7567
13	63096	22781.5	9086.33	24526.7	21.7445	50.2267
14	50119	24233.1	8648.22	25730.1	19.6403	51.6417
15	39811	25613.1	8080.48	26857.5	17.5096	53.0867
16	31623	26852.1	7481.02	27874.8	15.5679	54.5818
17	25119	27918.3	6893.69	28756.8	13.8702	56.0368
18	19953	28862.4	6321.72	29546.6	12.3544	57.5568
19	15849	29713.2	5775.96	30269.4	11.0005	59.3119
20	12589	30421.2	5257.58	30872.2	9.80534	60.8519
21	10000	31079.6	4786.04	31445.9	8.75439	63.4819
22	7943.3	31647.6	4387.85	31950.3	7.89357	64.807
23	6309.6	32145.8	4042.79	32399	7.16813	66.177
24	5011.9	32631.4	3751.89	32846.4	6.55894	67.607
25	3981.1	33067.8	3509.66	33253.5	6.05843	69.077
26	3162.3	33488.1	3315.65	33651.8	5.65442	70.5921
27	2511.9	33875.8	3160.14	34022.9	5.32947	72.1521
28	1995.3	34255.7	3035.97	34390	5.0647	73.7071
29	1584.9	34612.6	2947.54	34737.8	4.86745	75.1472
30	1258.9	34984.5	2881.6	35103	4.7087	76.6022
31	1000	35345.8	2845.7	35460.2	4.60297	78.0322
32	794.33	35714.5	2829.99	35826.5	4.5306	79.4472
33	630.96	36092.2	2830.71	36203	4.48454	80.8223
34	501.19	36453.8	2850.96	36565.1	4.47186	82.3273
35	398.11	36841.4	2882.62	36954	4.47393	83.8923
36	316.23	37239	2931.84	37354.3	4.50163	85.3973
37	251.19	37640	2994.71	37759	4.54897	86.8824
38	199.53	38037.1	3069.92	38160.8	4.61425	88.2024
39	158.49	38488.3	3159.78	38617.8	4.69329	89.6374
40	125.89	38919.8	3259.66	39056	4.78753	91.1774
41	100	39379.7	3376.29	39524.2	4.90037	92.7225
42	79.433	39789.1	3503.09	39943	5.03143	94.3775
43	63.096	40284.4	3640.57	40448.5	5.16389	96.2025
44	50.119	40798.4	3807.62	40975.7	5.33184	97.9426
45	39.811	41306	4021.12	41501.2	5.5602	107.163
46	31.623	41830.4	4240.12	42044.7	5.788	108.913
47	25.119	42365.6	4485.45	42602.4	6.04367	110.668
48	19.953	42965.7	4794.26	43232.3	6.36692	112.773
49	15.849	43579.1	5127.03	43879.7	6.70993	115.243
50	12.589	44211.8	5510.2	44553.9	7.10425	117.328
51	10	44896	5955.96	45289.3	7.55681	119.858
52	7.9433	45623.2	6463.05	46078.7	8.06295	122.343
53	6.3096	46423.5	7054.15	46956.4	8.64012	124.898
54	5.0119	47242.8	7737.56	47872.3	9.30148	127.463
55	3.9811	48130.1	8535.14	48881.1	10.056	130.028
56	3.1623	49131.3	9452.79	50032.4	10.8905	132.713
57	2.5119	50193.5	10548.6	51290	11.8685	135.388
58	1.9953	51372.3	11785.8	52706.9	12.9211	138.123
59	1.5849	52715.8	13189.5	54340.8	14.0471	140.958
60	1.2589	54074.5	14862.6	56079.8	15.3685	143.993
61	1	55725.9	16778.7	58197.1	16.7567	149.284
62	0.79433	57545.5	18948.6	60585	18.2257	152.764
63	0.63096	59461.5	21563.9	63250.9	19.9334	156.399
64	0.50119	61627.4	24620.8	66363.6	21.7773	160.434
65	0.39811	64062.4	28004.5	69916	23.6122	164.934
66	0.31623	66723.8	32239.9	74104.5	25.7891	169.894
67	0.25119	70193	37474.9	79570.2	28.0971	175.544
68	0.19953	73401.4	43184.6	85162.6	30.4698	182.044
69	0.15849	77521.5	50073.7	92287.3	32.8598	189.554
70	0.12589	82749.6	57804.9	100940	34.9363	198.209
71	0.1	87203.7	66729.3	109806	37.4236	208.41