File: data/20200619/Z_p35_3.txt
Index	Frequency (Hz)	Z' (Ω)	-Z'' (Ω)	Z (Ω)	-Phase (°)	Time (s)
1	1000000	3003.71	2470.49	3889.16	39.4366	799.372
2	794330	3410.15	2294.27	4110.08	33.9317	801.543
3	630960	3855.25	2210.02	4443.77	29.8234	803.764
4	501190	4299.96	2101.73	4786.12	26.0484	806.18
5	398110	4749.04	1974.74	5143.25	22.5785	815.361
6	316230	5091.21	1834.35	5411.59	19.8139	817.487
7	251190	5323.72	1605	5560.39	16.777	825.056
8	199530	5603.55	1465.78	5792.09	14.659	827.257
9	158490	5833	1318.24	5980.1	12.7348	829.433
10	125890	6023.18	1176.14	6136.94	11.0491	831.604
11	100000	6176.52	1037.54	6263.06	9.53556	833.96
12	79433	6304.96	910.257	6370.33	8.21512	836.226
13	63096	6405.27	794.774	6454.39	7.07319	838.407
14	50119	6491.98	694.848	6529.06	6.10921	840.558
15	39811	6569.49	604.404	6597.23	5.25651	842.829
16	31623	6619.04	523.582	6639.71	4.52282	844.975
17	25119	6668.77	461.008	6684.68	3.95453	847.676
18	19953	6710.98	407.472	6723.34	3.47458	849.852
19	15849	6753.35	363.384	6763.12	3.08	852.053
20	12589	6787.81	323.794	6795.53	2.73106	854.154
21	10000	6818.85	292.882	6825.14	2.45945	856.305
22	7943.3	6848.7	264.555	6853.81	2.21215	858.501
23	6309.6	6876.63	243.273	6880.94	2.02609	860.652
24	5011.9	6903.07	224.989	6906.74	1.86675	862.858
25	3981.1	6928.62	209.218	6931.78	1.72959	865.079
26	3162.3	6950.44	196.224	6953.21	1.61714	867.24
27	2511.9	6973.32	185.48	6975.79	1.52363	869.372
28	1995.3	6997.4	176.854	6999.64	1.4478	871.578
29	1584.9	7019.03	169.588	7021.08	1.38406	873.734
30	1258.9	7040.19	162.466	7042.06	1.32197	876.255
31	1000	7060.03	156.955	7061.77	1.27356	878.536
32	794.33	7077.5	152.29	7079.14	1.23267	880.732
33	630.96	7100.34	148.318	7101.88	1.19667	882.913
34	501.19	7121.56	144.319	7123.03	1.16094	885.059
35	398.11	7142.65	142.071	7144.07	1.13949	887.195
36	316.23	7156.39	140.696	7157.77	1.1263	889.386
37	251.19	7181.57	140.602	7182.94	1.12161	891.582
38	199.53	7198.47	139.89	7199.83	1.11331	893.673
39	158.49	7213.43	143.139	7214.85	1.1368	895.769
40	125.89	7235.42	145.907	7236.89	1.15525	898.05
41	100	7250.34	151.041	7251.91	1.19343	900.161
42	79.433	7271.71	155.519	7273.38	1.22519	902.377
43	63.096	7292.18	159.19	7293.92	1.25058	905.173
44	50.119	7285.89	161.333	7287.68	1.2685	907.509
45	39.811	7335.05	179.92	7337.26	1.40512	917.41
46	31.623	7360.4	188.022	7362.8	1.46331	919.991
47	25.119	7379.14	204.694	7381.98	1.58895	922.412
48	19.953	7398.43	223.402	7401.8	1.72957	925.194
49	15.849	7434.4	240.548	7438.29	1.85322	927.95
50	12.589	7456.39	271.102	7461.32	2.08226	930.756
51	10	7484.93	296.401	7490.8	2.26771	933.837
52	7.9433	7517.63	334.29	7525.06	2.54612	937.193
53	6.3096	7551.44	371.844	7560.59	2.81905	945.009
54	5.0119	7580.69	419.964	7592.32	3.17089	948.935
55	3.9811	7625.93	479.073	7640.96	3.59469	952.181
56	3.1623	7653.81	539.055	7672.77	4.02867	955.397
57	2.5119	7713.9	634.63	7739.96	4.70319	958.768
58	1.9953	7752.55	737.353	7787.54	5.43311	962.364
59	1.5849	7830.14	837.64	7874.81	6.10607	965.99
60	1.2589	7912.27	1007.39	7976.14	7.2559	969.806
61	1	7965.45	1166.17	8050.36	8.32916	976.869
62	0.79433	8060.35	1372.82	8176.42	9.66575	980.985
63	0.63096	8156.66	1615.14	8315.04	11.2005	985.416
64	0.50119	8256.53	1911.61	8474.94	13.0359	990.187
65	0.39811	8369.08	2285.47	8675.54	15.2742	995.263
66	0.31623	8460.83	2755.52	8898.23	18.0394	1000.83
67	0.25119	8617.54	3325.83	9237.05	21.1035	1007.09
68	0.19953	8826.34	3926.79	9660.43	23.984	1014.18
69	0.15849	9056.74	4810.18	10254.9	27.9735	1022.3
70	0.12589	9299.61	5801.49	10960.8	31.9577	1031.65
71	0.1	9471.91	6953.89	11750.5	36.2846	1042.51