File: data/20200619/Z_p39_3.txt
Index	Frequency (Hz)	Z' (Ω)	-Z'' (Ω)	Z (Ω)	-Phase (°)	Time (s)
1	1000000	2502.89	1750.23	3054.13	34.9645	779.305
2	794330	2755.88	1630.47	3202.07	30.61	781.401
3	630960	3055.4	1543.53	3423.15	26.802	783.412
4	501190	3346.57	1469.49	3654.99	23.7065	785.553
5	398110	3640.15	1338.4	3878.4	20.1873	793.863
6	316230	3868.46	1232.91	4060.17	17.6775	795.779
7	251190	4000.35	1073.68	4141.93	15.0239	802.638
8	199530	4187.27	975.988	4299.51	13.1205	804.579
9	158490	4336.71	873.562	4423.82	11.3889	806.615
10	125890	4457.03	773.504	4523.65	9.84544	808.761
11	100000	4556.95	680.897	4607.54	8.49823	810.767
12	79433	4638.02	597.273	4676.32	7.33803	812.688
13	63096	4704.53	523.205	4733.53	6.34596	814.814
14	50119	4759.5	457.742	4781.46	5.49349	816.87
15	39811	4803.59	401.108	4820.31	4.77322	818.796
16	31623	4837.85	353.605	4850.76	4.18039	820.743
17	25119	4872.96	316.438	4883.23	3.71542	822.664
18	19953	4905.37	284.927	4913.64	3.32427	824.77
19	15849	4933.11	258.714	4939.89	3.0021	826.671
20	12589	4958.63	237.829	4964.33	2.74595	828.777
21	10000	4979.01	220.635	4983.9	2.53729	830.743
22	7943.3	5006.09	207.446	5010.38	2.37291	832.714
23	6309.6	5029.69	197.22	5033.56	2.24548	834.675
24	5011.9	5052.97	189.136	5056.51	2.14362	836.701
25	3981.1	5074.88	183.767	5078.21	2.07384	838.702
26	3162.3	5096.41	179.044	5099.56	2.01205	840.633
27	2511.9	5119.62	176.633	5122.67	1.97599	842.579
28	1995.3	5138.13	175.492	5141.12	1.95617	844.49
29	1584.9	5163.17	174.983	5166.14	1.94105	846.641
30	1258.9	5183.39	176.743	5186.4	1.95292	848.507
31	1000	5207.58	177.691	5210.61	1.95426	850.428
32	794.33	5229.63	180.611	5232.75	1.97798	852.594
33	630.96	5258	184.931	5261.25	2.01434	854.49
34	501.19	5277.76	189.976	5281.18	2.06151	856.426
35	398.11	5303.37	196.411	5307.01	2.12099	858.492
36	316.23	5331.63	204.787	5335.56	2.19964	860.388
37	251.19	5358.89	216.057	5363.24	2.30877	862.374
38	199.53	5386.79	228.255	5391.63	2.42635	864.425
39	158.49	5419.36	241.934	5424.75	2.55613	866.491
40	125.89	5448.38	258.883	5454.53	2.72039	868.592
41	100	5479.25	278.196	5486.31	2.90656	870.568
42	79.433	5517.92	299.664	5526.06	3.10853	872.589
43	63.096	5555.78	323.098	5565.17	3.32831	874.681
44	50.119	5600.44	328.753	5610.08	3.35948	876.637
45	39.811	5641.2	383.254	5654.2	3.88662	886.328
46	31.623	5688.92	417.849	5704.24	4.20081	888.709
47	25.119	5743.49	456.855	5761.63	4.54791	890.86
48	19.953	5802.59	503.706	5824.41	4.96125	893.386
49	15.849	5867.38	554.635	5893.53	5.40005	896.062
50	12.589	5940.46	605.78	5971.27	5.82262	898.623
51	10	6016.85	666.64	6053.66	6.32233	901.589
52	7.9433	6101.83	732.143	6145.6	6.84206	904.61
53	6.3096	6190.47	803.072	6242.35	7.39154	907.706
54	5.0119	6286.98	884.977	6348.96	8.01251	910.682
55	3.9811	6386.58	976.441	6460.79	8.69261	913.698
56	3.1623	6490.76	1085.29	6580.86	9.49234	917.029
57	2.5119	6608.79	1207.3	6718.16	10.3526	920.285
58	1.9953	6727.06	1348.18	6860.83	11.3326	923.661
59	1.5849	6863.32	1536.02	7033.1	12.615	927.052
60	1.2589	6977.21	1765.39	7197.09	14.1992	930.594
61	1	7135.95	2019.84	7416.3	15.8043	937.066
62	0.79433	7300.61	2338.05	7665.85	17.7579	940.802
63	0.63096	7467.22	2698.01	7939.69	19.8655	944.968
64	0.50119	7664.95	3188.53	8301.7	22.5867	949.384
65	0.39811	7873.92	3740.06	8717.03	25.4074	954.205
66	0.31623	8120.44	4477.62	9273.12	28.8724	959.611
67	0.25119	8414.07	5299.53	9943.92	32.2044	965.677
68	0.19953	8685.77	6392.38	10784.5	36.3516	972.563
69	0.15849	9040.07	7621.7	11824.3	40.1343	980.544
70	0.12589	9480.98	9193.06	13206.1	44.1167	989.746
71	0.1	10115.9	11115	15029.2	47.6943	1000.66