File: data/20200619/Z_p30_3.txt
Index	Frequency (Hz)	Z' (Ω)	-Z'' (Ω)	Z (Ω)	-Phase (°)	Time (s)
1	1000000	3620.79	6072.85	7070.33	59.1955	729.204
2	794330	4911.3	6123.72	7849.9	51.2699	731.35
3	630960	6387.73	6536.92	9139.72	45.6613	733.601
4	501190	7804.18	6911.86	10424.9	41.5301	735.792
5	398110	9682.32	7614.65	12317.9	38.1832	744.527
6	316230	11189.9	7800.34	13640.3	34.8799	746.563
7	251190	12419.9	7599	14560.1	31.46	753.372
8	199530	13828.1	7547.15	15753.6	28.625	755.383
9	158490	15181.2	7369.04	16875.2	25.8922	757.499
10	125890	16461.4	7099.21	17927	23.3288	759.485
11	100000	17616.2	6755.45	18867	20.9808	761.582
12	79433	18689	6365.74	19743.3	18.8096	763.663
13	63096	19647.3	5952.38	20529.2	16.8548	765.729
14	50119	20537.4	5509.47	21263.5	15.0169	767.945
15	39811	21341	5056.19	21931.8	13.3289	769.951
16	31623	22007.5	4603.88	22483.9	11.8156	772.087
17	25119	22566.5	4230.04	22959.5	10.6167	774.383
18	19953	23106.7	3884.12	23430.9	9.54191	776.424
19	15849	23599.1	3563.96	23866.7	8.58797	778.49
20	12589	24044.7	3289.05	24268.6	7.78908	780.491
21	10000	24409	3014.32	24594.4	7.03993	784.218
22	7943.3	24780.3	2809.58	24939.1	6.46853	786.134
23	6309.6	25117.4	2633.44	25255	5.98533	788.085
24	5011.9	25438.9	2487.08	25560.2	5.58388	790.151
25	3981.1	25738.5	2367.39	25847.2	5.25518	792.157
26	3162.3	26041.1	2270.42	26139.9	4.98279	794.223
27	2511.9	26323.9	2191.98	26415	4.76001	796.239
28	1995.3	26590.3	2132.86	26675.7	4.58599	798.27
29	1584.9	26860.2	2093.57	26941.7	4.45681	800.261
30	1258.9	27139.8	2065.56	27218.2	4.35228	802.287
31	1000	27421.2	2046.95	27497.5	4.26912	804.263
32	794.33	27694.9	2036.06	27769.7	4.20467	806.424
33	630.96	27985.1	2032.54	28058.8	4.15407	808.5
34	501.19	28273.9	2035.5	28347.1	4.11774	810.541
35	398.11	28572.5	2045.07	28645.6	4.09396	812.592
36	316.23	28863.2	2056.89	28936.4	4.0762	814.748
37	251.19	29160.6	2070.09	29234	4.06057	816.915
38	199.53	29462.3	2086.16	29536	4.05023	818.946
39	158.49	29771.8	2099.77	29845.7	4.03434	821.042
40	125.89	30088.7	2114.75	30162.9	4.02036	823.208
41	100	30390.2	2129.41	30464.7	4.00811	825.234
42	79.433	30700.7	2140.09	30775.2	3.98753	827.335
43	63.096	31018.7	2149.03	31093	3.96322	829.471
44	50.119	31350.9	2152.98	31424.8	3.92854	831.527
45	39.811	31675.1	2152.53	31748.2	3.88765	841.328
46	31.623	32005.2	2147.38	32077.1	3.8385	843.664
47	25.119	32336.3	2133.43	32406.6	3.7747	845.905
48	19.953	32670.9	2130.13	32740.2	3.73039	848.481
49	15.849	32995.4	2109.34	33062.8	3.65783	851.202
50	12.589	33302.2	2070.54	33366.5	3.55775	853.868
51	10	33602	2037.4	33663.7	3.46978	856.814
52	7.9433	33898.4	1998.3	33957.2	3.37366	859.8
53	6.3096	34187.2	1961.78	34243.5	3.28423	862.976
54	5.0119	34464.1	1916.06	34517.4	3.18212	866.037
55	3.9811	34727.3	1887.07	34778.6	3.11037	869.223
56	3.1623	34975.1	1866.64	35024.9	3.05501	872.51
57	2.5119	35185.7	1852.42	35234.4	3.01366	875.871
58	1.9953	35410.6	1868.23	35459.9	3.02007	879.217
59	1.5849	35599.1	1904.9	35650	3.06297	882.603
60	1.2589	35806.1	1983.1	35861	3.17006	886.184
61	1	36007.9	2093.5	36068.7	3.32743	892.736
62	0.79433	36185.3	2241.23	36254.6	3.54423	896.547
63	0.63096	36366.4	2427.23	36447.3	3.81848	900.683
64	0.50119	36565.5	2716.22	36666.3	4.24833	905.239
65	0.39811	36751.5	3078	36880.2	4.78744	910.23
66	0.31623	36893.9	3563.84	37065.7	5.51748	915.726
67	0.25119	37131.5	4186.96	37366.8	6.43353	922.057
68	0.19953	37392.8	4805.37	37700.3	7.32298	928.944
69	0.15849	37709.6	5724.78	38141.6	8.63229	936.915
70	0.12589	38018.9	6822.72	38626.2	10.1738	946.231
71	0.1	38222.4	8331.44	39119.8	12.2966	957.022