File: data/20200619/Z_p39_2.txt
Index	Frequency (Hz)	Z' (Ω)	-Z'' (Ω)	Z (Ω)	-Phase (°)	Time (s)
1	1000000	2482.79	1767.82	3047.85	35.452	463.269
2	794330	2750.99	1639.25	3202.35	30.7897	464.689
3	630960	3056.28	1560.92	3431.81	27.0546	466.099
4	501190	3343.22	1467.04	3650.93	23.6925	467.549
5	398110	3638.25	1343.53	3878.4	20.2681	471.549
6	316230	3878.64	1227.93	4068.37	17.5672	472.859
7	251190	4003.42	1076.2	4145.55	15.0465	476.899
8	199530	4190.13	979.622	4303.12	13.159	478.159
9	158490	4340.02	876.605	4427.66	11.4191	479.514
10	125890	4461.41	776.411	4528.47	9.8722	480.804
11	100000	4560.11	682.76	4610.94	8.51534	482.179
12	79433	4639.06	598.973	4677.57	7.35706	483.44
13	63096	4707.24	523.794	4736.3	6.34942	484.8
14	50119	4761.44	458.664	4783.49	5.50226	486.18
15	39811	4809.93	401.197	4826.63	4.76802	487.65
16	31623	4846.24	354.491	4859.18	4.18361	488.925
17	25119	4876.74	316.773	4887.02	3.71648	490.175
18	19953	4908.02	285.389	4916.31	3.32786	491.465
19	15849	4937.09	258.768	4943.87	3.0003	492.8
20	12589	4963.25	238.332	4968.97	2.74919	494.19
21	10000	4987.64	221.027	4992.53	2.5374	495.575
22	7943.3	5013.5	207.507	5017.79	2.3701	496.905
23	6309.6	5033.28	197.791	5037.16	2.25038	498.23
24	5011.9	5057.31	189.211	5060.84	2.14263	499.58
25	3981.1	5078.61	183.613	5081.93	2.07058	500.9
26	3162.3	5100.12	179.447	5103.28	2.01511	502.19
27	2511.9	5121.44	175.865	5124.45	1.96671	503.58
28	1995.3	5145.6	175.698	5148.6	1.95562	504.845
29	1584.9	5166.54	175.263	5169.51	1.94289	506.01
30	1258.9	5190.57	176.305	5193.56	1.94539	507.27
31	1000	5211.62	178.097	5214.67	1.95721	508.63
32	794.33	5236.67	181.094	5239.8	1.98061	510.06
33	630.96	5259.76	185.204	5263.02	2.01664	511.4
34	501.19	5285.83	190.189	5289.25	2.06066	512.68
35	398.11	5311.02	197.174	5314.68	2.12615	513.935
36	316.23	5334.91	205.397	5338.86	2.20483	515.18
37	251.19	5363.92	216.203	5368.27	2.30817	516.475
38	199.53	5393.03	228.063	5397.85	2.4215	517.805
39	158.49	5423.78	242.976	5429.22	2.56503	519.17
40	125.89	5452.16	260.277	5458.37	2.73313	520.565
41	100	5486.14	279.261	5493.24	2.91401	521.915
42	79.433	5522.76	300.341	5530.92	3.11282	523.35
43	63.096	5561.12	325.185	5570.62	3.34654	524.815
44	50.119	5597.59	350.558	5608.56	3.58356	526.24
45	39.811	5646.82	383.056	5659.8	3.88075	535.305
46	31.623	5696.63	418.987	5712.02	4.20653	536.88
47	25.119	5750.23	459.058	5768.52	4.56441	538.391
48	19.953	5811.97	504.92	5833.87	4.96516	540.221
49	15.849	5876.23	553.38	5902.23	5.37983	542.136
50	12.589	5947.78	607.924	5978.77	5.83595	544.216
51	10	6023.33	668.788	6060.34	6.33577	546.471
52	7.9433	6105.4	733.248	6149.27	6.84832	548.726
53	6.3096	6199.72	805.686	6251.85	7.40439	551.141
54	5.0119	6298.54	888.188	6360.86	8.02663	553.586
55	3.9811	6391.27	981.121	6466.14	8.72732	556.026
56	3.1623	6498.62	1084.74	6588.53	9.47636	558.461
57	2.5119	6609.35	1209.45	6719.1	10.3699	561.016
58	1.9953	6732.83	1360.15	6868.85	11.4211	563.631
59	1.5849	6866.69	1557.18	7041.04	12.777	566.391
60	1.2589	6992.52	1773.59	7213.94	14.2324	569.336
61	1	7143.63	2022.53	7424.42	15.808	574.506
62	0.79433	7313.39	2331.7	7676.1	17.6837	577.576
63	0.63096	7491.36	2719.12	7969.57	19.9493	581.106
64	0.50119	7677.98	3170.42	8306.8	22.4369	584.996
65	0.39811	7887.21	3766.11	8740.23	25.5243	589.336
66	0.31623	8137.92	4444.45	9272.48	28.6407	594.122
67	0.25119	8414.71	5355.74	9974.53	32.4756	599.462
68	0.19953	8723.93	6403.5	10821.8	36.2793	605.687
69	0.15849	9152.96	7665.74	11939	39.9467	612.857
70	0.12589	9603.95	9108.86	13236.6	43.4845	621.467
71	0.1	10016.7	11074.4	14932.4	47.8709	631.742