File: data/20200619/Z_p36_3.txt
Index	Frequency (Hz)	Z' (Ω)	-Z'' (Ω)	Z (Ω)	-Phase (°)	Time (s)
1	1000000	3422.99	2797.15	4420.51	39.2545	737.55
2	794330	3869.57	2536.09	4626.59	33.2405	739.946
3	630960	4381.11	2398.37	4994.63	28.6978	742.432
4	501190	4865.28	2272.76	5369.95	25.039	744.788
5	398110	5376.69	2114.17	5777.41	21.4653	755.263
6	316230	5761.14	1943.23	6080.04	18.6393	757.514
7	251190	5972.52	1696.76	6208.87	15.8596	766.229
8	199530	6260.04	1548.5	6448.72	13.8939	769.615
9	158490	6497.66	1383.94	6643.41	12.0238	774.841
10	125890	6693.37	1230.55	6805.54	10.4173	777.047
11	100000	6851.32	1082.94	6936.38	8.98202	779.283
12	79433	6985.12	951.263	7049.6	7.75507	781.439
13	63096	7090.11	831.079	7138.66	6.68551	783.565
14	50119	7179.77	724.144	7216.2	5.75931	785.766
15	39811	7255.22	630.173	7282.54	4.96413	788.017
16	31623	7312.44	547.228	7332.89	4.27976	790.143
17	25119	7367.04	482.186	7382.81	3.74477	792.269
18	19953	7409.21	426.046	7421.45	3.29101	794.455
19	15849	7453.19	377.326	7462.74	2.89819	796.641
20	12589	7489.39	341.139	7497.16	2.608	798.867
21	10000	7522.16	307.477	7528.45	2.34072	801.233
22	7943.3	7553.24	278.798	7558.39	2.11388	803.464
23	6309.6	7585.48	255.253	7589.77	1.92729	805.76
24	5011.9	7615.06	235.358	7618.7	1.77027	807.941
25	3981.1	7633.56	218.361	7636.69	1.63852	810.122
26	3162.3	7660.47	203.823	7663.18	1.52411	812.353
27	2511.9	7687.64	192.719	7690.05	1.43603	814.479
28	1995.3	7708.26	181.714	7710.41	1.35044	816.711
29	1584.9	7729.59	171.525	7731.49	1.27122	818.742
30	1258.9	7747.21	165.704	7748.98	1.22531	820.948
31	1000	7770.73	158.05	7772.34	1.16519	823.199
32	794.33	7788.97	151.987	7790.45	1.11788	825.345
33	630.96	7808.7	146.543	7810.08	1.07512	827.501
34	501.19	7831.38	142.863	7832.69	1.0451	829.682
35	398.11	7849.05	138.736	7850.27	1.01262	831.758
36	316.23	7868.45	137.14	7869.65	0.998515	833.779
37	251.19	7887.82	134.568	7888.97	0.977387	836.265
38	199.53	7905.79	135.599	7906.95	0.982635	838.426
39	158.49	7919.63	137.922	7920.83	0.997715	840.717
40	125.89	7939.73	142.976	7941.02	1.03165	843.043
41	100	7956.97	144.429	7958.28	1.03988	845.304
42	79.433	7973.33	149.094	7974.72	1.07125	847.62
43	63.096	7992.95	158.172	7994.52	1.13367	849.951
44	50.119	8008.5	184.217	8010.62	1.31772	852.312
45	39.811	8028.57	179.565	8030.58	1.28125	863.223
46	31.623	8056.17	191.322	8058.44	1.36043	866.549
47	25.119	8074.99	203.849	8077.56	1.44609	869.946
48	19.953	8100.73	230.625	8104.01	1.63075	874.117
49	15.849	8132.55	249.53	8136.38	1.75745	878.128
50	12.589	8149.9	279.956	8154.7	1.96739	881.054
51	10	8178.78	314.849	8184.84	2.20456	884.42
52	7.9433	8207.54	352.394	8215.1	2.45851	888.011
53	6.3096	8241.84	402.572	8251.67	2.79638	891.237
54	5.0119	8278.36	457.286	8290.98	3.16173	894.408
55	3.9811	8326.76	523.456	8343.2	3.59713	897.654
56	3.1623	8367.76	596.977	8389.03	4.08071	900.92
57	2.5119	8411.8	719.037	8442.48	4.88574	904.456
58	1.9953	8466.46	805.312	8504.68	5.43351	908.002
59	1.5849	8482.95	975.858	8538.89	6.56232	911.848
60	1.2589	8555.27	1128.44	8629.37	7.51395	915.519
61	1	8662.77	1347.57	8766.96	8.84197	922.207
62	0.79433	8763.93	1610.12	8910.61	10.4104	926.198
63	0.63096	8855.84	1901.65	9057.72	12.1193	930.619
64	0.50119	8942.32	2264.47	9224.58	14.2103	935.345
65	0.39811	9055.87	2736.35	9460.26	16.8129	940.426
66	0.31623	9194.4	3367.91	9791.83	20.1178	946.017
67	0.25119	9379.06	4076.27	10226.6	23.4904	952.293
68	0.19953	9504.3	4875.84	10682	27.1585	959.364
69	0.15849	9795.78	5924.79	11448.2	31.1669	967.465
70	0.12589	10037.1	7214.06	12360.7	35.7062	976.851
71	0.1	10240.3	8827.66	13520	40.763	987.923