File: data/20200619/Z_p38_3.txt
Index	Frequency (Hz)	Z' (Ω)	-Z'' (Ω)	Z (Ω)	-Phase (°)	Time (s)
1	1000000	3416.58	2929.09	4500.29	40.607	632.032
2	794330	3910.94	2657.65	4728.48	34.1978	634.418
3	630960	4441.54	2550.72	5121.86	29.8681	637.199
4	501190	4959.03	2433.38	5523.89	26.1371	639.86
5	398110	5514.19	2287.37	5969.78	22.5294	649.32
6	316230	5914.18	2110.54	6279.48	19.6395	651.521
7	251190	6177.12	1868.45	6453.52	16.8294	659.221
8	199530	6491.12	1714.42	6713.71	14.795	661.482
9	158490	6757.32	1545.5	6931.8	12.8828	663.728
10	125890	6988.08	1384.96	7124	11.2101	665.844
11	100000	7168	1229.08	7272.61	9.72976	667.935
12	79433	7322.85	1086.45	7403.01	8.43908	669.986
13	63096	7449.01	956.924	7510.22	7.32031	672.152
14	50119	7556.5	839.583	7603	6.33998	674.528
15	39811	7648.64	734.82	7683.85	5.48768	676.679
16	31623	7715.58	645.984	7742.58	4.7859	679.07
17	25119	7784.71	572.912	7805.76	4.20907	681.566
18	19953	7843.5	512.234	7860.2	3.7365	684.642
19	15849	7897.74	455.568	7910.87	3.30136	687.008
20	12589	7943.49	407.248	7953.92	2.93488	689.199
21	10000	7983	368.94	7991.52	2.64608	691.535
22	7943.3	8025.16	335.837	8032.18	2.39631	693.706
23	6309.6	8061.45	307.258	8067.3	2.18274	695.962
24	5011.9	8093.2	282.83	8098.14	2.00148	698.853
25	3981.1	8127.8	262.602	8132.04	1.85053	701.434
26	3162.3	8159.63	243.442	8163.26	1.70891	703.815
27	2511.9	8184.56	229.405	8187.78	1.60552	706.656
28	1995.3	8212.38	214.9	8215.19	1.49896	708.918
29	1584.9	8236.52	203.689	8239.04	1.41663	711.099
30	1258.9	8262.77	192.96	8265.02	1.33778	713.925
31	1000	8285.53	183.058	8287.55	1.26567	716.716
32	794.33	8310.23	175.53	8312.09	1.21003	719.467
33	630.96	8330.97	166.807	8332.64	1.14705	721.533
34	501.19	8353.26	159.927	8354.79	1.09682	723.659
35	398.11	8378.71	155.138	8380.14	1.06076	726.175
36	316.23	8400.02	149.454	8401.35	1.0193	728.451
37	251.19	8415.97	147.762	8417.26	1.00586	730.992
38	199.53	8441.07	144.684	8442.31	0.981978	733.208
39	158.49	8459.6	143.252	8460.81	0.970133	735.529
40	125.89	8476.03	143.922	8477.26	0.972784	737.92
41	100	8495	146.003	8496.25	0.984642	740.101
42	79.433	8516.09	146.242	8517.35	0.983809	742.352
43	63.096	8531.22	147.599	8532.5	0.991177	744.903
44	50.119	8593.42	186.335	8595.44	1.24218	747.424
45	39.811	8567.49	161.981	8569.02	1.08313	757.855
46	31.623	8588.73	168.408	8590.38	1.12331	760.396
47	25.119	8608.51	180.521	8610.4	1.20132	762.723
48	19.953	8631.24	193.682	8633.41	1.28548	765.384
49	15.849	8656.73	214.375	8659.38	1.41859	768.085
50	12.589	8676.81	233.584	8679.95	1.54206	771.006
51	10	8693.96	255.93	8697.73	1.68617	774.117
52	7.9433	8719.24	292.706	8724.16	1.9227	777.573
53	6.3096	8748.8	324.94	8754.84	2.12705	780.704
54	5.0119	8773.18	376.644	8781.26	2.45827	783.995
55	3.9811	8798.36	429.915	8808.86	2.79742	787.291
56	3.1623	8821.77	484.326	8835.06	3.14245	790.777
57	2.5119	8859.39	590.283	8879.03	3.81187	794.168
58	1.9953	8890.6	719.492	8919.66	4.62671	797.914
59	1.5849	8944.32	790.933	8979.22	5.05344	801.765
60	1.2589	8965.58	954.268	9016.23	6.07551	805.786
61	1	9050.69	1176.9	9126.89	7.40884	812.598
62	0.79433	9139.48	1417.47	9248.75	8.81592	816.575
63	0.63096	9195.48	1704.16	9352.06	10.4993	821.251
64	0.50119	9306.48	2046.32	9528.8	12.4009	826.617
65	0.39811	9409.19	2507.19	9737.5	14.9204	831.973
66	0.31623	9558.67	3005.65	10020.1	17.4554	837.964
67	0.25119	9748.31	3662.39	10413.6	20.591	844.57
68	0.19953	9910.87	4401.09	10844.1	23.9445	852.056
69	0.15849	10191.5	5430.88	11548.2	28.0524	860.842
70	0.12589	10481.8	6601.35	12387.3	32.2024	870.459
71	0.1	10916.1	7876.2	13460.9	35.8112	881.285