File: data/20200619/Z_p39_1.txt
Index	Frequency (Hz)	Z' (Ω)	-Z'' (Ω)	Z (Ω)	-Phase (°)	Time (s)
1	1000000	2454.08	1770.78	3026.25	35.813	148.633
2	794330	2739.75	1654.52	3200.57	31.1276	150.303
3	630960	3048.68	1569.44	3428.94	27.2391	151.668
4	501190	3348.29	1489.09	3664.48	23.9762	153.083
5	398110	3647.78	1341.25	3886.55	20.188	157.263
6	316230	3873.98	1236.91	4066.65	17.7076	158.583
7	251190	4005.73	1085.01	4150.08	15.1557	162.693
8	199530	4191.65	985.551	4305.95	13.2312	163.968
9	158490	4344.93	879.844	4433.12	11.4475	165.348
10	125890	4468.43	780.309	4536.05	9.90551	166.703
11	100000	4565.87	685.949	4617.11	8.54389	168.138
12	79433	4647.81	601.407	4686.56	7.37286	169.418
13	63096	4711.84	526.236	4741.14	6.3726	170.873
14	50119	4769.56	461.074	4791.79	5.52163	172.248
15	39811	4813.7	403.946	4830.62	4.79679	173.708
16	31623	4852.21	355.473	4865.21	4.19001	174.973
17	25119	4885.69	317.893	4896.02	3.72277	176.368
18	19953	4916.28	286.713	4924.63	3.33766	177.723
19	15849	4945.11	260.254	4951.96	3.01261	179.148
20	12589	4969.16	239.234	4974.91	2.7563	180.538
21	10000	4993.33	222.29	4998.27	2.54898	181.858
22	7943.3	5019.34	208.751	5023.68	2.38152	183.208
23	6309.6	5043.5	197.935	5047.38	2.24745	184.523
24	5011.9	5064.1	189.88	5067.66	2.14732	185.783
25	3981.1	5086.74	184.122	5090.07	2.073	187.083
26	3162.3	5108.9	179.698	5112.06	2.01447	188.398
27	2511.9	5132.14	176.68	5135.18	1.9717	189.768
28	1995.3	5152.72	175.95	5155.73	1.95572	191.068
29	1584.9	5175.21	175.726	5178.2	1.94475	192.273
30	1258.9	5197.7	176.621	5200.7	1.9462	193.498
31	1000	5219.59	178.724	5222.65	1.96109	194.788
32	794.33	5244	181.301	5247.13	1.9801	196.183
33	630.96	5267.92	185.395	5271.18	2.01559	197.483
34	501.19	5292.39	190.615	5295.82	2.06272	198.768
35	398.11	5320.65	197.795	5324.33	2.12899	199.913
36	316.23	5345	206.117	5348.97	2.20838	201.268
37	251.19	5370.19	217.042	5374.57	2.31441	202.569
38	199.53	5400.4	228.946	5405.26	2.42756	203.899
39	158.49	5431.34	244.012	5436.82	2.57238	205.244
40	125.89	5461.4	259.934	5467.58	2.72493	206.629
41	100	5495.3	279.725	5502.41	2.91399	207.854
42	79.433	5530.51	302.252	5538.76	3.1282	209.319
43	63.096	5572.78	326.127	5582.31	3.34922	210.804
44	50.119	5610.45	355.454	5621.7	3.62516	212.319
45	39.811	5655.35	386.499	5668.55	3.90964	221.384
46	31.623	5707.53	420.699	5723.02	4.21562	223.029
47	25.119	5759.02	459.959	5777.36	4.56638	224.574
48	19.953	5819.92	507.277	5841.99	4.98144	226.504
49	15.849	5885.53	555.284	5911.67	5.38975	228.504
50	12.589	5956.32	611.164	5987.6	5.85848	230.554
51	10	6033.41	668.74	6070.36	6.32482	232.844
52	7.9433	6122.53	739.847	6167.07	6.89021	235.124
53	6.3096	6208.71	810.265	6261.36	7.43533	237.454
54	5.0119	6304.38	894.101	6367.47	8.07198	239.824
55	3.9811	6405.63	985.165	6480.94	8.7434	242.194
56	3.1623	6510.21	1099.11	6602.34	9.58276	244.624
57	2.5119	6631.22	1221.12	6742.72	10.434	247.284
58	1.9953	6756.31	1366.16	6893.05	11.4314	249.884
59	1.5849	6869.75	1567.7	7046.36	12.855	252.599
60	1.2589	7014.34	1765.07	7233.01	14.1245	255.419
61	1	7166.14	2032.31	7448.74	15.8333	260.505
62	0.79433	7335.13	2351.8	7702.93	17.777	263.655
63	0.63096	7503.49	2711.55	7978.4	19.8685	267.255
64	0.50119	7674.18	3199.88	8314.58	22.6345	271.03
65	0.39811	7873.39	3761.53	8725.79	25.5362	275.29
66	0.31623	8134.12	4503.23	9297.47	28.9699	280.045
67	0.25119	8402.51	5310.26	9939.87	32.2923	285.45
68	0.19953	8741.25	6332.41	10793.9	35.9207	291.625
69	0.15849	9088.22	7613.01	11855.5	39.9522	298.875
70	0.12589	9576.76	9245.74	13311.6	43.9925	307.425
71	0.1	10165.5	10993.5	14973.2	47.241	317.666