File: data/20200619/Z_p31_2.txt
Index	Frequency (Hz)	Z' (Ω)	-Z'' (Ω)	Z (Ω)	-Phase (°)	Time (s)
1	1000000	3215.56	5906.73	6725.27	61.4366	467.311
2	794330	4546.42	6119.99	7623.92	53.3921	468.736
3	630960	5904.37	6707.37	8935.9	48.6432	470.141
4	501190	7349.29	7347.78	10392.4	44.9941	471.576
5	398110	9141.66	8245.94	12311.2	42.051	476.721
6	316230	10643.6	8711.8	13754.3	39.3005	478.081
7	251190	12150.5	8610.21	14892	35.3225	482.147
8	199530	13800	8769.72	16350.8	32.4354	483.522
9	158490	15408	8771.81	17729.9	29.653	484.912
10	125890	17010.2	8587.79	19055.1	26.7875	486.212
11	100000	18484.6	8306.67	20265.2	24.1984	487.637
12	79433	19897.9	7986.09	21440.8	21.8682	488.957
13	63096	21166	7409.05	22425.3	19.2924	490.337
14	50119	22326.9	6862.69	23357.8	17.086	491.757
15	39811	23343.6	6290.62	24176.3	15.0818	493.037
16	31623	24200	5679.61	24857.5	13.208	494.352
17	25119	24919.5	5169.02	25449.9	11.7186	495.672
18	19953	25568.4	4695.29	25996	10.4057	496.992
19	15849	26152	4263.78	26497.3	9.25993	498.372
20	12589	26630.5	3894.44	26913.8	8.31995	499.662
21	10000	27068.9	3545.2	27300.1	7.46153	501.872
22	7943.3	27487.4	3276.29	27682	6.79714	503.057
23	6309.6	27867.6	3054.87	28034.6	6.25583	504.377
24	5011.9	28198.6	2869.64	28344.2	5.81072	505.757
25	3981.1	28552.1	2725.48	28681.9	5.45272	507.107
26	3162.3	28851	2613.65	28969.2	5.17636	508.397
27	2511.9	29188.4	2532.35	29298	4.9585	509.697
28	1995.3	29483.1	2474.19	29586.7	4.79695	511.037
29	1584.9	29802.4	2438.73	29902	4.67809	512.347
30	1258.9	30114.5	2423.69	30211.9	4.60139	513.672
31	1000	30425.2	2426.66	30521.8	4.56015	515.002
32	794.33	30741.9	2444.87	30839	4.5471	516.347
33	630.96	31075.1	2474.66	31173.5	4.55314	517.732
34	501.19	31407.4	2517.05	31508.1	4.582	519.102
35	398.11	31763.4	2572.92	31867.4	4.631	520.317
36	316.23	32120.3	2639.9	32228.6	4.69846	521.662
37	251.19	32487	2717.15	32600.5	4.78098	523.122
38	199.53	32876.3	2805.56	32995.8	4.87763	524.412
39	158.49	33278.1	2902.45	33404.4	4.98461	525.752
40	125.89	33661.8	3010.75	33796.2	5.111	527.117
41	100	34089.6	3129.68	34232.9	5.24548	528.497
42	79.433	34514.1	3261.3	34667.9	5.39795	529.927
43	63.096	34974.9	3405.86	35140.3	5.56194	531.407
44	50.119	35421	3573.31	35600.8	5.76058	532.892
45	39.811	35938.6	3743.7	36133.1	5.94701	542.013
46	31.623	36461.9	3938.4	36674	6.16486	543.668
47	25.119	36997.3	4157.07	37230.2	6.41093	545.258
48	19.953	37554.2	4411.52	37812.4	6.69989	547.168
49	15.849	38148.7	4677.27	38434.4	6.98994	549.168
50	12.589	38772.5	4974.03	39090.2	7.3104	551.283
51	10	39444.3	5307.17	39799.8	7.66303	553.638
52	7.9433	40146.4	5674.72	40545.5	8.0455	555.938
53	6.3096	40886.4	6089.98	41337.5	8.47184	558.363
54	5.0119	41652.9	6569.32	42167.8	8.96261	560.748
55	3.9811	42425.5	7103.27	43016.1	9.50482	563.223
56	3.1623	43303.2	7735.13	43988.7	10.1278	565.678
57	2.5119	44200	8457.71	45002	10.8326	568.418
58	1.9953	45194.2	9324.31	46146	11.6575	571.013
59	1.5849	46245.9	10282.8	47375.3	12.5358	573.838
60	1.2589	47375	11429.1	48734.2	13.5633	576.798
61	1	48532.4	12806	50193.5	14.7814	581.868
62	0.79433	49907.4	14360.4	51932.3	16.0527	585.088
63	0.63096	51334.3	16303.4	53861	17.6195	588.673
64	0.50119	52958.8	18473.9	56088.5	19.2306	592.434
65	0.39811	54682	21260.7	58669.7	21.2464	596.734
66	0.31623	56657	24298	61647.5	23.2126	601.519
67	0.25119	58805.9	28395.7	65302.7	25.7746	607.089
68	0.19953	61276.1	32783.3	69494.6	28.1472	613.364
69	0.15849	64379.4	38266.3	74893.4	30.7267	620.634
70	0.12589	68145.1	44138.3	81190.8	32.9316	629.204
71	0.1	71100.6	51475.4	87778.2	35.9038	639.424