File: data/20200619/Z_p30_1.txt
Index	Frequency (Hz)	Z' (Ω)	-Z'' (Ω)	Z (Ω)	-Phase (°)	Time (s)
1	1000000	3598.02	5965.11	6966.22	58.9026	140.649
2	794330	4993.18	6144.22	7917.28	50.9005	142.299
3	630960	6362.59	6503.81	9098.46	45.6288	143.844
4	501190	7845.56	6963.5	10490.1	41.5914	145.574
5	398110	9669.08	7669.49	12341.5	38.4214	150.965
6	316230	11228.1	7820.36	13683.2	34.8571	152.245
7	251190	12407.3	7591.29	14545.4	31.4599	156.635
8	199530	13841.1	7547.42	15765.2	28.6032	157.975
9	158490	15183.9	7366.76	16876.6	25.8812	159.42
10	125890	16454.3	7091.66	17917.5	23.3156	160.745
11	100000	17605	6753.09	18855.7	20.9863	162.29
12	79433	18672.5	6353.61	19723.9	18.7916	163.775
13	63096	19633.7	5938.71	20512.2	16.8293	165.395
14	50119	20519.5	5506.19	21245.4	15.0209	166.995
15	39811	21317.3	5084.57	21915.3	13.4155	168.56
16	31623	21966.5	4597.08	22442.3	11.8201	170.2
17	25119	22540.6	4223.21	22932.8	10.6119	171.76
18	19953	23091.9	3886.89	23416.7	9.55462	173.255
19	15849	23567.2	3569.27	23836	8.61202	174.595
20	12589	23973	3265.2	24194.4	7.75613	175.955
21	10000	24392.8	3009.11	24577.7	7.03249	178.37
22	7943.3	24752.4	2803.57	24910.6	6.46205	179.695
23	6309.6	25094.1	2629.69	25231.5	5.98237	181.135
24	5011.9	25411.8	2483.59	25532.9	5.582	182.54
25	3981.1	25718.1	2364.31	25826.6	5.25253	184.015
26	3162.3	26002.3	2266.66	26100.9	4.98198	185.325
27	2511.9	26281.6	2195.72	26373.2	4.77573	186.795
28	1995.3	26559.7	2132.23	26645.2	4.5899	188.165
29	1584.9	26837.2	2090.33	26918.4	4.45375	189.54
30	1258.9	27106.8	2061.49	27185	4.34902	190.895
31	1000	27401.2	2044.33	27477.3	4.26678	192.38
32	794.33	27669.4	2031.03	27743.8	4.19818	193.845
33	630.96	27944	2029.78	28017.6	4.15452	195.13
34	501.19	28242.9	2033.16	28315.9	4.11753	196.48
35	398.11	28532.6	2041.42	28605.6	4.09236	197.82
36	316.23	28831.1	2054.29	28904.2	4.07558	199.34
37	251.19	29128.4	2067.65	29201.7	4.06026	200.89
38	199.53	29438.1	2081.45	29511.6	4.04442	202.351
39	158.49	29736.4	2098.64	29810.3	4.03696	203.936
40	125.89	30041.3	2112.14	30115.5	4.02172	205.461
41	100	30343.1	2126.5	30417.5	4.00884	207.051
42	79.433	30669.4	2137.37	30743.8	3.98653	208.581
43	63.096	30984.2	2138.96	31058	3.94909	210.141
44	50.119	31310.2	2160.86	31384.7	3.94799	211.526
45	39.811	31637.9	2151.29	31711	3.88997	220.716
46	31.623	31962.9	2150.79	32035.2	3.84964	222.456
47	25.119	32290.5	2131.84	32360.8	3.77722	224.121
48	19.953	32621.5	2122.57	32690.5	3.72278	226.021
49	15.849	32949.8	2101.31	33016.8	3.64899	228.111
50	12.589	33251.5	2068.21	33315.7	3.55916	230.231
51	10	33571.7	2034.55	33633.3	3.46807	232.716
52	7.9433	33871.3	1994.07	33930	3.36923	235.106
53	6.3096	34154.6	1950.27	34210.3	3.26811	237.516
54	5.0119	34400	1913.27	34453.2	3.18341	239.986
55	3.9811	34673.1	1878.95	34723.9	3.10184	242.636
56	3.1623	34911.6	1847.53	34960.4	3.02929	245.296
57	2.5119	35137.2	1858.27	35186.3	3.02733	247.851
58	1.9953	35329.7	1860.26	35378.7	3.01407	250.816
59	1.5849	35566.6	1883.93	35616.4	3.03207	253.676
60	1.2589	35751.1	1976.24	35805.7	3.16396	256.617
61	1	35928.5	2070.74	35988.1	3.2986	261.937
62	0.79433	36137.2	2217.73	36205.2	3.51181	265.232
63	0.63096	36302.9	2399.52	36382.1	3.7816	268.782
64	0.50119	36462.8	2672.34	36560.6	4.19169	272.732
65	0.39811	36642.7	3014.49	36766.5	4.70296	276.962
66	0.31623	36827.1	3531.71	36996	5.4779	281.697
67	0.25119	37094.9	4059.63	37316.4	6.24554	287.397
68	0.19953	37333.4	4802.61	37641.1	7.33033	293.842
69	0.15849	37620.3	5668.94	38045	8.56935	301.127
70	0.12589	37820.9	6772.01	38422.4	10.1515	309.753
71	0.1	38318.2	8321.04	39211.3	12.2519	320.048