File: data/20200619/Z_p35_1.txt
Index	Frequency (Hz)	Z' (Ω)	-Z'' (Ω)	Z (Ω)	-Phase (°)	Time (s)
1	1000000	2991.66	2467.34	3877.86	39.5138	142.98
2	794330	3403.18	2293.55	4103.9	33.9777	144.675
3	630960	3849.82	2184.35	4426.35	29.5702	146.22
4	501190	4278.99	2103.96	4768.28	26.1831	147.781
5	398110	4741.3	1966.63	5132.99	22.5281	154.041
6	316230	5082.94	1850.26	5409.22	20.0022	155.571
7	251190	5313.64	1600.87	5549.55	16.7662	159.971
8	199530	5588.42	1461.42	5776.34	14.6551	161.246
9	158490	5817.16	1316.53	5964.28	12.7522	162.561
10	125890	6008.99	1171.59	6122.14	11.0327	164.061
11	100000	6157.51	1031.99	6243.39	9.51423	165.591
12	79433	6289.74	907.009	6354.8	8.20575	167.001
13	63096	6387.99	791.7	6436.86	7.06497	168.471
14	50119	6476.76	691.206	6513.54	6.0916	169.806
15	39811	6546.55	599.257	6573.92	5.23016	171.231
16	31623	6598.96	519.923	6619.41	4.50495	172.616
17	25119	6647.88	458.975	6663.71	3.94948	173.966
18	19953	6696.68	406.456	6709	3.47331	175.451
19	15849	6730.7	360.255	6740.33	3.06378	176.861
20	12589	6768.8	322.624	6776.49	2.72884	178.281
21	10000	6796.34	292.091	6802.61	2.46093	179.691
22	7943.3	6829.1	264.565	6834.22	2.21858	181.201
23	6309.6	6857.25	242.653	6861.54	2.02665	182.671
24	5011.9	6884.7	223.698	6888.34	1.861	184.086
25	3981.1	6908.08	209.472	6911.25	1.73684	185.526
26	3162.3	6929.14	196.688	6931.94	1.62594	186.951
27	2511.9	6951.1	185.319	6953.57	1.52717	188.296
28	1995.3	6974.53	176.949	6976.77	1.45332	189.631
29	1584.9	6995.49	169.201	6997.54	1.38555	190.936
30	1258.9	7018.53	162.003	7020.4	1.32228	192.421
31	1000	7040.53	156.861	7042.27	1.27632	193.916
32	794.33	7059.64	151.896	7061.27	1.23259	195.531
33	630.96	7077.74	147.472	7079.28	1.19364	197.036
34	501.19	7099.85	144.976	7101.33	1.16979	198.521
35	398.11	7118.93	141.919	7120.34	1.14206	199.916
36	316.23	7137.98	140.103	7139.35	1.12444	201.132
37	251.19	7153.8	140.129	7155.18	1.12216	202.462
38	199.53	7174.03	140.368	7175.4	1.12092	203.852
39	158.49	7190.74	142.304	7192.15	1.13373	205.397
40	125.89	7215.91	145.45	7217.38	1.15475	206.927
41	100	7231.4	150.393	7232.96	1.19142	208.552
42	79.433	7252.37	155.513	7254.03	1.22841	210.162
43	63.096	7269.42	161.033	7271.2	1.26901	211.887
44	50.119	7284.73	164.356	7286.58	1.29247	213.552
45	39.811	7310.16	178.89	7312.34	1.40183	222.872
46	31.623	7330.03	191.207	7332.52	1.49424	224.757
47	25.119	7357.29	202.685	7360.08	1.57804	226.577
48	19.953	7378.8	220.349	7382.09	1.71049	228.507
49	15.849	7405.81	242.569	7409.78	1.87599	230.627
50	12.589	7431.15	267.423	7435.96	2.061	232.702
51	10	7457.33	296.297	7463.22	2.2753	235.082
52	7.9433	7486.14	333.274	7493.56	2.54905	237.487
53	6.3096	7523.12	372.988	7532.36	2.83834	239.927
54	5.0119	7561.01	420.809	7572.71	3.18552	242.592
55	3.9811	7597.97	477.494	7612.96	3.59602	245.072
56	3.1623	7643.16	546.624	7662.68	4.09071	247.812
57	2.5119	7689.17	628.898	7714.84	4.67582	250.572
58	1.9953	7738.96	736.202	7773.9	5.43416	253.287
59	1.5849	7808.88	826.536	7852.5	6.04202	256.123
60	1.2589	7867.65	995.799	7930.42	7.2135	259.123
61	1	7948.65	1165.93	8033.71	8.34481	264.588
62	0.79433	8042.05	1359.62	8156.18	9.59594	267.858
63	0.63096	8128.19	1608.84	8285.88	11.196	271.538
64	0.50119	8219.17	1902.98	8436.59	13.0359	275.723
65	0.39811	8343.55	2255.86	8643.13	15.1295	280.138
66	0.31623	8443.41	2709.17	8867.4	17.7894	285.023
67	0.25119	8650.67	3297.36	9257.79	20.8652	290.443
68	0.19953	8806.49	3984.88	9666.11	24.3464	296.708
69	0.15849	9011.59	4813.73	10216.7	28.1099	304.258
70	0.12589	9233.78	5722.11	10863	31.7862	312.859
71	0.1	9372.79	7056.91	11732.4	36.9766	323.129