File: data/20200619/Z_p37_2.txt
Index	Frequency (Hz)	Z' (Ω)	-Z'' (Ω)	Z (Ω)	-Phase (°)	Time (s)
1	1000000	3691.45	3355.65	4988.7	42.2719	417.261
2	794330	4274.19	3067.54	5261.04	35.6665	418.796
3	630960	4898.75	2930.68	5708.47	30.8899	420.226
4	501190	5522.9	2816.83	6199.76	27.0229	421.686
5	398110	6194.44	2663.38	6742.75	23.2659	426.812
6	316230	6663.59	2463.78	7104.48	20.2913	428.297
7	251190	6980.46	2188.95	7315.62	17.4105	432.837
8	199530	7351.82	2013.72	7622.62	15.3181	434.242
9	158490	7672.16	1825.61	7886.37	13.3848	435.617
10	125890	7933.46	1635.64	8100.31	11.6495	436.982
11	100000	8147.85	1454.82	8276.71	10.1236	438.407
12	79433	8339.8	1289.02	8438.83	8.78624	439.747
13	63096	8489.68	1133.8	8565.06	7.60689	441.117
14	50119	8617.27	1000.15	8675.12	6.6203	442.547
15	39811	8731.01	877.582	8775	5.73971	443.932
16	31623	8811.09	770.842	8844.74	4.99982	445.302
17	25119	8886.97	681.098	8913.03	4.38258	446.712
18	19953	8955.46	605.532	8975.91	3.86822	448.002
19	15849	9020.31	541.947	9036.58	3.43824	449.367
20	12589	9077.05	487.627	9090.14	3.07502	450.762
21	10000	9124.25	439.658	9134.84	2.7587	452.242
22	7943.3	9174.06	404.377	9182.96	2.52387	453.682
23	6309.6	9213.54	368.63	9220.91	2.29116	455.067
24	5011.9	9252.48	340.524	9258.75	2.10774	456.432
25	3981.1	9290.45	319.519	9295.94	1.96975	457.832
26	3162.3	9325.58	297.739	9330.34	1.82867	459.842
27	2511.9	9360.04	283.383	9364.33	1.73415	461.537
28	1995.3	9410.53	269.141	9414.38	1.63822	464.032
29	1584.9	9422.87	259.015	9426.43	1.57454	467.492
30	1258.9	9462.67	248.247	9465.93	1.50277	468.787
31	1000	9490.24	241.708	9493.32	1.45896	470.157
32	794.33	9520.95	235.54	9523.86	1.41716	471.737
33	630.96	9548.38	231.702	9551.19	1.39007	473.242
34	501.19	9580.99	229.343	9583.74	1.37124	474.727
35	398.11	9610.42	227.962	9613.13	1.35881	475.967
36	316.23	9639.05	231.23	9641.82	1.3742	477.442
37	251.19	9676.92	236.351	9679.81	1.39913	478.957
38	199.53	9698.84	239.814	9701.81	1.41641	480.337
39	158.49	9728.68	248.297	9731.85	1.462	481.598
40	125.89	9765.05	262.398	9768.58	1.53923	483.088
41	100	9795.1	278.281	9799.05	1.62735	484.698
42	79.433	9830.69	299.546	9835.25	1.74529	486.333
43	63.096	9865.32	319.341	9870.48	1.85402	487.933
44	50.119	9968.03	367.837	9974.81	2.11335	489.448
45	39.811	9951.03	375.274	9958.1	2.15972	498.698
46	31.623	9994.5	409.292	10002.9	2.34505	500.503
47	25.119	10042.8	443.449	10052.6	2.5283	502.623
48	19.953	10098.2	495.925	10110.4	2.81155	504.643
49	15.849	10158.2	547.147	10172.9	3.08312	506.713
50	12.589	10229.2	611.634	10247.5	3.42181	508.908
51	10	10298.2	665.721	10319.7	3.69869	511.298
52	7.9433	10374.1	740.768	10400.5	4.08429	513.648
53	6.3096	10457.8	831.622	10490.8	4.54668	516.328
54	5.0119	10539.4	929.895	10580.3	5.04218	518.828
55	3.9811	10643.4	1045.78	10694.6	5.61169	521.313
56	3.1623	10757	1173.93	10820.9	6.22814	523.818
57	2.5119	10877.1	1343.51	10959.7	7.04137	526.433
58	1.9953	10931.4	1512.05	11035.5	7.87527	529.148
59	1.5849	11166.7	1783.17	11308.2	9.07277	531.838
60	1.2589	11253.1	2061.79	11440.4	10.3825	534.683
61	1	11404.6	2417.68	11658	11.9691	539.834
62	0.79433	11604.7	2834.09	11945.7	13.7241	542.979
63	0.63096	11822.6	3328.55	12282.2	15.7241	548.124
64	0.50119	12037.8	3902.37	12654.5	17.9615	554.259
65	0.39811	12281.9	4668.32	13139.2	20.8116	560.024
66	0.31623	12642.8	5546.29	13805.9	23.6866	565.724
67	0.25119	12980.6	6696.3	14606.1	27.2878	572.849
68	0.19953	13391.6	7956.96	15577.1	30.7178	579.199
69	0.15849	13903.9	9562.65	16874.9	34.5189	586.524
70	0.12589	14616.6	11478.3	18584.8	38.1421	595.4
71	0.1	15363.4	13760.3	20624.7	41.8494	607.26