File: data/20200619/Z_p37_3.txt
Index	Frequency (Hz)	Z' (Ω)	-Z'' (Ω)	Z (Ω)	-Phase (°)	Time (s)
1	1000000	3717.36	3346.4	5001.71	41.9938	671.637
2	794330	4290.65	3047.14	5262.58	35.3817	674.162
3	630960	4907.58	2929.23	5715.31	30.832	676.717
4	501190	5536.42	2794.51	6201.71	26.7823	678.977
5	398110	6197.77	2664.86	6746.4	23.2663	688.022
6	316230	6689.41	2495.74	7139.81	20.46	690.177
7	251190	6977.7	2193.17	7314.25	17.4485	697.552
8	199530	7356.1	2011.07	7626.05	15.2903	700.277
9	158490	7642.99	1812.2	7854.9	13.3389	702.442
10	125890	7947.13	1640.75	8114.74	11.6653	705.767
11	100000	8155.87	1457.35	8285.05	10.1311	707.868
12	79433	8352	1293.6	8451.58	8.80433	710.003
13	63096	8498.98	1137.54	8574.77	7.62342	712.113
14	50119	8628.94	1001.8	8686.9	6.62224	714.413
15	39811	8732.3	873.732	8775.9	5.71386	716.568
16	31623	8826	769.316	8859.46	4.98159	718.853
17	25119	8894.81	681.07	8920.85	4.37856	720.803
18	19953	8970.46	609.704	8991.15	3.8883	722.913
19	15849	9026.75	543.143	9043.07	3.44336	725.048
20	12589	9083.46	486.467	9096.47	3.06556	727.503
21	10000	9134.63	444.303	9145.43	2.78464	734.308
22	7943.3	9181.98	402.187	9190.78	2.50805	736.903
23	6309.6	9228.75	371.617	9236.23	2.3059	739.568
24	5011.9	9264.06	339.717	9270.29	2.10012	747.963
25	3981.1	9301.58	317.845	9307.01	1.9571	752.153
26	3162.3	9336.45	299.065	9341.24	1.83467	754.308
27	2511.9	9372.02	283.984	9376.32	1.7356	756.273
28	1995.3	9412.7	269.391	9416.56	1.63935	758.308
29	1584.9	9440.97	257.918	9444.49	1.56487	763.429
30	1258.9	9469.37	250.854	9472.69	1.51747	765.419
31	1000	9502.79	243.239	9505.91	1.46625	767.449
32	794.33	9529.5	235.06	9532.4	1.413	769.819
33	630.96	9561.84	232.487	9564.67	1.39282	772.154
34	501.19	9590.2	229.54	9592.95	1.3711	774.294
35	398.11	9622.27	230.38	9625.03	1.37154	776.619
36	316.23	9650.11	231.228	9652.88	1.37261	778.749
37	251.19	9681.39	235.704	9684.26	1.39465	780.894
38	199.53	9709.76	242.703	9712.8	1.43185	783.629
39	158.49	9741.68	251.103	9744.91	1.47654	785.934
40	125.89	9769.3	262.844	9772.83	1.54118	788.129
41	100	9802.76	278.038	9806.7	1.62466	790.924
42	79.433	9838.03	300.17	9842.61	1.74762	793.349
43	63.096	9879.64	317.209	9884.73	1.83898	795.759
44	50.119	9956	348.522	9962.1	2.00489	803.999
45	39.811	9957.98	380.028	9965.22	2.18553	818.14
46	31.623	10002.4	412.867	10010.9	2.36364	820.675
47	25.119	10056	449.666	10066	2.56035	823.355
48	19.953	10111.3	502.345	10123.8	2.8442	826.495
49	15.849	10169.6	547.83	10184.3	3.08351	829.275
50	12.589	10237.5	615.102	10256	3.43838	832.26
51	10	10309.6	676.704	10331.8	3.75539	835.365
52	7.9433	10378.8	738.248	10405	4.06864	847.74
53	6.3096	10469.6	834.037	10502.8	4.55472	851.265
54	5.0119	10554.6	938.918	10596.3	5.08355	854.84
55	3.9811	10647.7	1051.22	10699.5	5.6384	857.99
56	3.1623	10739.8	1188.92	10805.5	6.31702	861.365
57	2.5119	10887.3	1338.26	10969.2	7.00761	864.94
58	1.9953	11023.6	1547.14	11131.6	7.98918	875.241
59	1.5849	11144.9	1778.49	11286	9.06673	882.631
60	1.2589	11273.2	2014.1	11451.8	10.1297	886.561
61	1	11414.5	2417.9	11667.7	11.96	893.396
62	0.79433	11620.9	2836.72	11962.1	13.7179	897.561
63	0.63096	11822	3322.46	12280	15.6975	910.066
64	0.50119	12070.4	3925.68	12692.7	18.0162	915.051
65	0.39811	12309.4	4650.09	13158.4	20.695	920.876
66	0.31623	12667.1	5585.53	13843.9	23.795	927.617
67	0.25119	12995.9	6703.79	14623.1	27.2864	934.532
68	0.19953	13531.1	7984.61	15711.3	30.5446	942.052
69	0.15849	13904.7	9526.07	16854.9	34.415	950.867
70	0.12589	14621.1	11290.6	18473	37.6756	961.052
71	0.1	15212.5	13588.5	20397.7	41.7726	972.377