File: data/20200619/Z_p38_1.txt
Index	Frequency (Hz)	Z' (Ω)	-Z'' (Ω)	Z (Ω)	-Phase (°)	Time (s)
1	1000000	3408.59	2896.17	4472.84	40.3535	95.3265
2	794330	3912.19	2656.21	4728.71	34.1748	97.2666
3	630960	4435.23	2536.65	5109.39	29.7666	98.7516
4	501190	4944.84	2424.04	5507.03	26.1148	100.432
5	398110	5494.05	2276.87	5947.16	22.5103	106.507
6	316230	5879.68	2114.62	6248.38	19.781	107.977
7	251190	6154.04	1856.01	6427.83	16.7829	116.837
8	199530	6470.42	1706.24	6691.61	14.7725	118.517
9	158490	6734.05	1534.17	6906.6	12.8342	120.642
10	125890	6957.16	1373.94	7091.53	11.1714	122.332
11	100000	7139.94	1220.61	7243.52	9.70122	124.122
12	79433	7290.13	1078.86	7369.53	8.41808	126.187
13	63096	7419.28	949.355	7479.77	7.29182	127.852
14	50119	7523.35	832.449	7569.26	6.31402	129.482
15	39811	7615.91	731.718	7650.98	5.488	131.042
16	31623	7685.7	639.858	7712.29	4.75907	132.672
17	25119	7743.84	568.298	7764.66	4.19725	134.502
18	19953	7807.22	507.406	7823.7	3.71853	136.717
19	15849	7857.36	451.533	7870.32	3.28896	138.777
20	12589	7900.76	406.932	7911.23	2.94844	140.837
21	10000	7945.84	367.569	7954.34	2.64857	142.482
22	7943.3	7988.72	334.189	7995.7	2.39544	144.797
23	6309.6	8021.02	305.033	8026.82	2.17786	146.867
24	5011.9	8056.57	281.624	8061.5	2.002	149.058
25	3981.1	8086	260.046	8090.18	1.842	151.278
26	3162.3	8116.25	242.094	8119.86	1.70853	153.883
27	2511.9	8145.29	227.148	8148.45	1.5974	155.633
28	1995.3	8166.82	213.775	8169.62	1.49943	157.198
29	1584.9	8197.79	203.081	8200.31	1.41908	158.933
30	1258.9	8220.88	191.318	8223.11	1.33316	160.578
31	1000	8245.14	182.944	8247.17	1.27108	162.433
32	794.33	8267.01	174.122	8268.85	1.2066	164.383
33	630.96	8292.09	165.928	8293.75	1.14636	166.128
34	501.19	8307.71	158.535	8309.22	1.09324	167.783
35	398.11	8337.36	152.546	8338.75	1.0482	169.598
36	316.23	8356.82	149.069	8358.15	1.02193	171.218
37	251.19	8376.81	146.221	8378.09	1.00002	172.828
38	199.53	8396.94	145.169	8398.19	0.990451	174.523
39	158.49	8411.22	140.591	8412.39	0.957594	176.288
40	125.89	8431.89	141.429	8433.07	0.960942	177.913
41	100	8451.16	142.998	8452.37	0.969379	180.098
42	79.433	8467.45	145.6	8468.7	0.985116	182.263
43	63.096	8494.78	145.766	8496.03	0.98307	184.423
44	50.119	8507.75	164.251	8509.34	1.10602	186.513
45	39.811	8525	159.903	8526.5	1.07457	197.658
46	31.623	8546.26	167.821	8547.91	1.12496	199.583
47	25.119	8568.32	179.423	8570.2	1.19961	201.498
48	19.953	8587.15	195.891	8589.39	1.30681	203.684
49	15.849	8602.78	211.272	8605.37	1.40682	205.744
50	12.589	8628.64	230.968	8631.73	1.53331	208.014
51	10	8651.37	257.426	8655.2	1.70436	211.189
52	7.9433	8679.95	289.329	8684.77	1.90913	214.864
53	6.3096	8700.46	324.525	8706.51	2.13613	217.684
54	5.0119	8718.89	372.445	8726.84	2.44602	220.799
55	3.9811	8746.87	422.889	8757.09	2.76795	223.549
56	3.1623	8787.95	492.553	8801.74	3.208	226.554
57	2.5119	8813.44	576.845	8832.3	3.74471	229.389
58	1.9953	8892.23	691.309	8919.07	4.4454	232.444
59	1.5849	8913.79	789.194	8948.65	5.05956	236.504
60	1.2589	8935.82	942.312	8985.36	6.01979	240.454
61	1	8999.51	1171.96	9075.5	7.41955	246.984
62	0.79433	9069.24	1417.8	9179.39	8.88514	250.789
63	0.63096	9160.9	1696.21	9316.61	10.49	256.14
64	0.50119	9235.59	2052.77	9460.97	12.5313	260.78
65	0.39811	9332	2465.59	9652.22	14.7998	265.18
66	0.31623	9466.02	2972.41	9921.73	17.4327	270.56
67	0.25119	9638.3	3687.43	10319.6	20.9359	276.29
68	0.19953	9819.88	4425.96	10771.2	24.2617	282.61
69	0.15849	10073.4	5395.15	11427.2	28.1727	289.93
70	0.12589	10433.1	6561.73	12325	32.1672	298.885
71	0.1	10673.4	7840.03	13243.4	36.2987	312.216