File: data/20200619/Z_p34_2.txt
Index	Frequency (Hz)	Z' (Ω)	-Z'' (Ω)	Z (Ω)	-Phase (°)	Time (s)
1	1000000	3606.94	3378.13	4941.84	43.1238	394.093
2	794330	4234.06	3122.57	5260.96	36.4083	395.548
3	630960	4878.32	3008.58	5731.45	31.6632	396.963
4	501190	5513.2	2886.01	6222.89	27.6308	398.443
5	398110	6198.08	2750.7	6781.04	23.9316	402.538
6	316230	6703.24	2600.06	7189.83	21.2004	403.898
7	251190	7010.23	2293.89	7375.99	18.1192	407.933
8	199530	7405.94	2117.75	7702.78	15.958	409.203
9	158490	7743.43	1930.59	7980.47	13.9996	410.578
10	125890	8031.03	1734.96	8216.3	12.1904	411.923
11	100000	8265.28	1549.53	8409.28	10.6182	413.373
12	79433	8466.02	1378.4	8577.5	9.24748	414.638
13	63096	8631.14	1219.6	8716.87	8.04276	415.998
14	50119	8770.22	1075.61	8835.93	6.99202	417.358
15	39811	8895.18	944.581	8945.19	6.06154	418.668
16	31623	8984.77	828.69	9022.91	5.26963	420.003
17	25119	9064.22	738.694	9094.27	4.65906	421.273
18	19953	9148.39	657.745	9172	4.11234	422.593
19	15849	9209.78	588.599	9228.57	3.65681	423.943
20	12589	9272.11	526.541	9287.04	3.2502	425.293
21	10000	9326.84	477.12	9339.03	2.92845	426.648
22	7943.3	9381.96	432.348	9391.92	2.63849	427.984
23	6309.6	9426.29	396.417	9434.62	2.40812	429.294
24	5011.9	9472.35	361.927	9479.26	2.18814	430.549
25	3981.1	9507.45	335.428	9513.37	2.02059	431.844
26	3162.3	9548.28	312.774	9553.4	1.87617	433.234
27	2511.9	9584.72	291.865	9589.16	1.74418	434.574
28	1995.3	9628.07	273.943	9631.96	1.62977	435.929
29	1584.9	9661.98	258.503	9665.43	1.53257	437.214
30	1258.9	9686.53	245.488	9689.64	1.45175	440.054
31	1000	9716.72	233.88	9719.53	1.37883	441.249
32	794.33	9745.04	223.129	9747.59	1.31165	442.664
33	630.96	9774.65	214.083	9776.99	1.25468	443.949
34	501.19	9800.93	206.732	9803.11	1.20837	445.219
35	398.11	9826.89	200.968	9828.95	1.17158	446.479
36	316.23	9853.5	195.023	9855.43	1.13387	447.819
37	251.19	9884.57	195.087	9886.5	1.13067	449.144
38	199.53	9906.55	194.115	9908.45	1.12254	450.419
39	158.49	9931.42	196.596	9933.36	1.13404	451.719
40	125.89	9956.47	197.795	9958.43	1.13809	453.204
41	100	9979.87	201.426	9981.91	1.15625	454.559
42	79.433	10002.6	208.06	10004.8	1.19161	455.899
43	63.096	10032.2	218.122	10034.6	1.24554	457.349
44	50.119	10072.9	222.552	10075.3	1.2657	458.759
45	39.811	10083.7	244.134	10086.7	1.3869	467.964
46	31.623	10115.1	262.805	10118.6	1.48829	469.614
47	25.119	10142.4	276.209	10146.2	1.55996	471.324
48	19.953	10173.4	305.197	10178	1.71833	473.259
49	15.849	10208.8	339.909	10214.4	1.907	475.209
50	12.589	10252.4	372.939	10259.1	2.08327	477.179
51	10	10280.3	411.839	10288.6	2.29409	479.564
52	7.9433	10330.5	463.719	10340.9	2.57019	481.835
53	6.3096	10379.6	526.042	10393	2.90128	484.3
54	5.0119	10423	597.551	10440.1	3.28118	486.695
55	3.9811	10481.5	679.314	10503.5	3.7082	489.225
56	3.1623	10543.7	781.183	10572.6	4.2373	491.67
57	2.5119	10617.5	916.097	10657	4.93135	494.345
58	1.9953	10669.9	1021.32	10718.7	5.46766	496.99
59	1.5849	10733	1203.86	10800.3	6.39975	499.755
60	1.2589	10853	1443.02	10948.5	7.57362	502.68
61	1	10952.2	1686.08	11081.2	8.75194	507.88
62	0.79433	11091.3	1984.63	11267.4	10.1449	510.99
63	0.63096	11203.2	2366.47	11450.4	11.9274	514.52
64	0.50119	11366.3	2817.45	11710.3	13.9218	518.43
65	0.39811	11530.1	3385.91	12017	16.3653	522.56
66	0.31623	11760.3	4027	12430.7	18.9024	527.345
67	0.25119	11969.7	4912.16	12938.4	22.3124	532.77
68	0.19953	12237.2	5879.15	13576.2	25.6611	539.061
69	0.15849	12611	7104.17	14474.3	29.394	546.341
70	0.12589	13130.7	8466.85	15623.8	32.8144	554.876
71	0.1	13402.2	10204.1	16844.7	37.2849	564.971