File: data/20200619/Z_p30_2.txt
Index	Frequency (Hz)	Z' (Ω)	-Z'' (Ω)	Z (Ω)	-Phase (°)	Time (s)
1	1000000	3595.32	6070.61	7055.39	59.3639	466.076
2	794330	4964.79	6132.37	7890.19	51.0063	467.566
3	630960	6361.26	6503.13	9097.05	45.6318	469.081
4	501190	7825.44	6921.58	10447.3	41.4927	471.061
5	398110	9681.08	7647.55	12337.3	38.3069	476.421
6	316230	11090.5	7865.33	13596.4	35.3441	477.896
7	251190	12388	7566.58	14516.1	31.4166	483.127
8	199530	13823.8	7537.33	15745.1	28.6012	484.502
9	158490	15177.5	7362.82	16869.1	25.8787	485.992
10	125890	16445.9	7094.76	17911	23.3353	487.447
11	100000	17603	6750.29	18852.9	20.9805	489.067
12	79433	18673.9	6358.49	19726.8	18.8038	490.632
13	63096	19634.8	5936.43	20512.6	16.8223	492.267
14	50119	20512.7	5512.52	21240.5	15.0421	493.802
15	39811	21289.6	5075.87	21886.4	13.4101	495.372
16	31623	21988.4	4609.04	22466.3	11.8385	496.857
17	25119	22544.6	4224.48	22937	10.6132	498.252
18	19953	23073.4	3868.59	23395.4	9.51796	499.822
19	15849	23542.7	3559.01	23810.2	8.59645	501.317
20	12589	23994.6	3267.36	24216	7.75431	502.922
21	10000	24399.6	3013.12	24584.9	7.03985	505.307
22	7943.3	24763.6	2806.77	24922.2	6.46645	506.787
23	6309.6	25094.1	2629.8	25231.5	5.98261	508.137
24	5011.9	25410.9	2484.61	25532.1	5.58447	509.442
25	3981.1	25720.2	2363.29	25828.6	5.24985	510.782
26	3162.3	26001.1	2266.51	26099.7	4.98188	512.287
27	2511.9	26286.3	2191.89	26377.6	4.76659	513.802
28	1995.3	26569.8	2133.52	26655.3	4.59092	515.282
29	1584.9	26823.9	2091.69	26905.4	4.45881	516.627
30	1258.9	27120.5	2064.79	27199	4.35374	518.052
31	1000	27386.2	2042.48	27462.2	4.26527	519.492
32	794.33	27672.9	2032.73	27747.5	4.20115	520.982
33	630.96	27950	2029.33	28023.6	4.15271	522.292
34	501.19	28246.1	2035.9	28319.4	4.12259	523.762
35	398.11	28543.5	2043.81	28616.5	4.09558	525.112
36	316.23	28829.3	2052.27	28902.2	4.07185	526.487
37	251.19	29141.5	2068.25	29214.8	4.05964	527.927
38	199.53	29455.2	2084.31	29528.8	4.04762	529.312
39	158.49	29736.6	2098.32	29810.6	4.0363	530.672
40	125.89	30049	2114.27	30123.3	4.02474	532.152
41	100	30357.1	2126.48	30431.5	4.00695	533.482
42	79.433	30666.6	2137.94	30741	3.98796	535.017
43	63.096	31003.4	2149.54	31077.8	3.9661	536.578
44	50.119	31308.7	2142.76	31382	3.9152	538.103
45	39.811	31640	2150.13	31713	3.88762	547.558
46	31.623	31981.9	2142.96	32053.6	3.83339	549.433
47	25.119	32306.6	2133.25	32376.9	3.77785	551.118
48	19.953	32628.1	2125.8	32697.3	3.72769	553.008
49	15.849	32945.1	2102.53	33012.2	3.65161	554.988
50	12.589	33265.6	2067.19	33329.7	3.5559	557.188
51	10	33570.8	2029.69	33632.1	3.4599	559.448
52	7.9433	33870.5	1995.02	33929.2	3.3709	561.893
53	6.3096	34157.2	1953.24	34213	3.27283	564.333
54	5.0119	34419	1915.3	34472.2	3.18503	566.783
55	3.9811	34690.7	1886.07	34741.9	3.112	569.273
56	3.1623	34915.2	1870.86	34965.3	3.06715	572.388
57	2.5119	35145.1	1859.68	35194.2	3.02894	574.983
58	1.9953	35366.2	1879.67	35416.1	3.04234	577.598
59	1.5849	35598.2	1901.67	35649	3.05786	580.413
60	1.2589	35756.4	1972.47	35810.7	3.15747	583.373
61	1	35977.4	2086.83	36037.9	3.31966	588.718
62	0.79433	36149.3	2234.99	36218.3	3.53791	591.924
63	0.63096	36333.4	2409.38	36413.2	3.7939	595.464
64	0.50119	36512.6	2692.18	36611.7	4.21695	599.454
65	0.39811	36707.5	3059.48	36834.8	4.76444	604.024
66	0.31623	36909.2	3514.7	37076.2	5.43962	608.844
67	0.25119	37074.8	4145.26	37305.8	6.37963	614.374
68	0.19953	37302.5	4849.76	37616.5	7.40757	620.654
69	0.15849	37586	5820.45	38034	8.80272	627.964
70	0.12589	38030.6	6858.75	38644.1	10.2233	636.489
71	0.1	38184.5	8264.12	39068.5	12.212	646.74