File: data/20200619/Z_p36_2.txt
Index	Frequency (Hz)	Z' (Ω)	-Z'' (Ω)	Z (Ω)	-Phase (°)	Time (s)
1	1000000	3399.3	2769.25	4384.52	39.1681	392.25
2	794330	3881.44	2535.54	4636.22	33.1545	393.585
3	630960	4384.1	2405.23	5000.55	28.7503	395.035
4	501190	4854.37	2277.38	5362.03	25.1331	396.61
5	398110	5366.01	2111.27	5766.41	21.4773	402.28
6	316230	5750.82	1933.3	6067.09	18.5815	403.63
7	251190	5958.68	1693.13	6194.56	15.8623	410.695
8	199530	6242.66	1537.79	6429.28	13.8385	412.82
9	158490	6484.32	1381.68	6629.89	12.0287	415.21
10	125890	6680.48	1226.04	6792.06	10.3996	417.715
11	100000	6838.56	1080.34	6923.36	8.97724	420.56
12	79433	6969.29	945.716	7033.16	7.7277	422.94
13	63096	7073.71	826.373	7121.82	6.66327	426
14	50119	7163.34	721.159	7199.55	5.7488	427.411
15	39811	7238.71	626.328	7265.76	4.94519	428.851
16	31623	7299.96	543.714	7320.18	4.25963	430.306
17	25119	7350.43	481.395	7366.18	3.74707	431.771
18	19953	7394.14	424.991	7406.34	3.28956	433.201
19	15849	7435.45	378.883	7445.1	2.91705	434.996
20	12589	7473.62	338.134	7481.27	2.59051	436.626
21	10000	7505.45	305.145	7511.65	2.32816	438.176
22	7943.3	7536.88	277.665	7541.99	2.10987	439.611
23	6309.6	7564.87	253.485	7569.11	1.91916	440.986
24	5011.9	7594.62	233.527	7598.21	1.76123	442.421
25	3981.1	7617.4	217.662	7620.51	1.63674	443.761
26	3162.3	7641.84	203.317	7644.54	1.52404	445.211
27	2511.9	7663.69	192.053	7666.1	1.43554	446.806
28	1995.3	7684.4	180.425	7686.52	1.34502	448.346
29	1584.9	7708.5	172.208	7710.43	1.27977	450.591
30	1258.9	7732.12	164.552	7733.87	1.21917	452.131
31	1000	7752.71	157.57	7754.32	1.16435	453.606
32	794.33	7773.49	151.705	7774.97	1.11803	455.111
33	630.96	7790.66	145.706	7792.02	1.07146	456.496
34	501.19	7808	140.876	7809.27	1.03364	458.021
35	398.11	7829.35	138.514	7830.58	1.01355	459.961
36	316.23	7852.93	135.77	7854.11	0.990492	461.431
37	251.19	7865.49	133.535	7866.63	0.972637	463.056
38	199.53	7884.98	135.264	7886.14	0.982791	464.551
39	158.49	7901.78	136.634	7902.97	0.990633	466.116
40	125.89	7919.68	138.468	7920.89	1.00166	467.731
41	100	7938.21	144.496	7939.53	1.04281	469.441
42	79.433	7955.91	148.863	7957.3	1.07193	470.886
43	63.096	7973.76	155.396	7975.27	1.11646	472.521
44	50.119	7971.21	178.184	7973.2	1.28055	474.026
45	39.811	8012.14	176.262	8014.08	1.26027	483.527
46	31.623	8036.38	186.385	8038.54	1.3286	485.197
47	25.119	8052.75	205.764	8055.38	1.4637	487.072
48	19.953	8077.15	226.81	8080.33	1.60847	489.942
49	15.849	8106.32	249.679	8110.17	1.76418	492.512
50	12.589	8136.5	280.11	8141.32	1.97171	494.627
51	10	8162.3	311.433	8168.24	2.18507	496.942
52	7.9433	8187.53	352.805	8195.12	2.46738	499.427
53	6.3096	8232.76	394.475	8242.21	2.74324	502.092
54	5.0119	8259.12	455.201	8271.66	3.15466	504.567
55	3.9811	8296.67	516.731	8312.75	3.56387	507.137
56	3.1623	8338.09	604.206	8359.95	4.1446	509.682
57	2.5119	8390.7	696.992	8419.6	4.7485	512.697
58	1.9953	8436.02	803.057	8474.16	5.43781	515.617
59	1.5849	8493.94	928.324	8544.51	6.23724	518.512
60	1.2589	8560.15	1161.21	8638.55	7.72516	521.382
61	1	8635.86	1344.55	8739.91	8.84955	526.687
62	0.79433	8728.9	1593.8	8873.22	10.3476	530.227
63	0.63096	8815.25	1883	9014.12	12.0576	534.012
64	0.50119	8933.49	2270.61	9217.54	14.2608	538.393
65	0.39811	9000.6	2736.01	9407.27	16.9083	543.013
66	0.31623	9133.45	3298.8	9710.92	19.8586	548.208
67	0.25119	9328.29	4076.65	10180.2	23.6063	553.908
68	0.19953	9450.83	4923.77	10656.5	27.519	560.443
69	0.15849	9687.87	5915.12	11350.9	31.407	569.103
70	0.12589	9996.01	7214.03	12327.3	35.8176	578.668
71	0.1	10170.6	8899.29	13514.4	41.186	589.074