File: data/20200619/Z_p33_2.txt
Index	Frequency (Hz)	Z' (Ω)	-Z'' (Ω)	Z (Ω)	-Phase (°)	Time (s)
1	1000000	3408.82	3022.65	4555.92	41.5639	499.971
2	794330	3927.11	2781.31	4812.27	35.3074	501.396
3	630960	4500.52	2671.61	5233.76	30.6943	502.786
4	501190	5042.41	2564.47	5657.07	26.957	504.276
5	398110	5607.76	2425.09	6109.67	23.3862	509.611
6	316230	6078.78	2271.84	6489.44	20.4924	511.021
7	251190	6341.67	1988.88	6646.23	17.4126	515.316
8	199530	6682.43	1830.66	6928.65	15.3204	516.631
9	158490	6971.81	1657.95	7166.23	13.3769	518.026
10	125890	7215.75	1485.13	7367	11.6301	519.436
11	100000	7417.11	1319.91	7533.63	10.0904	520.956
12	79433	7580.49	1162.85	7669.17	8.72124	522.436
13	63096	7720.98	1026.65	7788.94	7.57415	523.891
14	50119	7835.13	902.068	7886.88	6.56762	525.501
15	39811	7936.94	791.323	7976.29	5.69364	526.986
16	31623	8010.29	691.76	8040.1	4.93575	528.386
17	25119	8076.25	613.253	8099.5	4.3423	529.781
18	19953	8140.28	547.883	8158.69	3.8505	531.156
19	15849	8193.15	488.314	8207.69	3.41081	532.531
20	12589	8243.82	438.347	8255.46	3.04371	534.011
21	10000	8283.84	394.346	8293.22	2.72546	535.572
22	7943.3	8326.57	359.266	8334.31	2.47061	537.062
23	6309.6	8369.57	327.753	8375.99	2.24256	538.447
24	5011.9	8405.6	302.357	8411.03	2.06009	539.852
25	3981.1	8437.72	281.814	8442.42	1.91293	541.217
26	3162.3	8468.51	262.583	8472.58	1.776	542.577
27	2511.9	8499.89	247.911	8503.5	1.67064	543.977
28	1995.3	8528.72	234.521	8531.94	1.57511	545.342
29	1584.9	8556.15	222.259	8559.03	1.48801	546.587
30	1258.9	8585.05	211.785	8587.66	1.41315	547.982
31	1000	8611.97	202.602	8614.35	1.34767	549.407
32	794.33	8637.67	193.963	8639.85	1.28639	550.902
33	630.96	8661.08	189.82	8663.16	1.25552	552.317
34	501.19	8690	184.394	8691.95	1.21558	553.707
35	398.11	8710.95	178.844	8712.79	1.17617	554.932
36	316.23	8737.58	177.974	8739.39	1.16688	556.197
37	251.19	8761.09	175.729	8762.86	1.14908	557.597
38	199.53	8784.13	176.841	8785.91	1.15332	559.027
39	158.49	8804.89	180.397	8806.74	1.17373	560.497
40	125.89	8827.13	183.044	8829.03	1.18794	562.152
41	100	8849.9	189.002	8851.92	1.22345	563.637
42	79.433	8877.13	196.882	8879.31	1.27053	565.247
43	63.096	8908.28	206.835	8910.68	1.33007	566.812
44	50.119	8930.62	188.91	8932.62	1.2118	593.583
45	39.811	8949.92	231.049	8952.9	1.47881	602.583
46	31.623	8981.89	244.886	8985.23	1.56175	604.238
47	25.119	9006.79	267.958	9010.78	1.70409	605.823
48	19.953	9041.55	289.501	9046.19	1.83392	607.768
49	15.849	9071.99	312.788	9077.38	1.97469	609.888
50	12.589	9110.92	353.481	9117.77	2.22182	611.888
51	10	9145.71	388.531	9153.96	2.4326	614.248
52	7.9433	9184.79	435.369	9195.11	2.71385	616.543
53	6.3096	9230.33	488.497	9243.25	3.02944	618.988
54	5.0119	9279.74	551.731	9296.13	3.40254	621.458
55	3.9811	9330.76	633.718	9352.25	3.8854	624.028
56	3.1623	9381.18	723.81	9409.06	4.41194	626.588
57	2.5119	9445.98	820.291	9481.53	4.96313	629.158
58	1.9953	9534.82	962.298	9583.25	5.76304	631.813
59	1.5849	9607.23	1133.3	9673.84	6.72771	634.768
60	1.2589	9706.83	1290.2	9792.2	7.5712	637.888
61	1	9782.2	1533.35	9901.65	8.90859	643.069
62	0.79433	9910.78	1809.33	10074.6	10.3461	646.279
63	0.63096	10030.7	2111.64	10250.6	11.8881	649.844
64	0.50119	10150.3	2527.51	10460.2	13.9828	653.694
65	0.39811	10290.3	3009.27	10721.3	16.3009	657.874
66	0.31623	10501.3	3644.54	11115.7	19.1397	662.614
67	0.25119	10697.6	4291.03	11526.2	21.8567	668.199
68	0.19953	11002.4	5160.37	12152.5	25.1276	674.609
69	0.15849	11270.2	6193.61	12859.9	28.7913	681.989
70	0.12589	11499.7	7554.31	13759	33.3014	690.539
71	0.1	12077.5	9179.22	15169.9	37.2358	700.74