File: data/20200619/Z_p32_3.txt
Index	Frequency (Hz)	Z' (Ω)	-Z'' (Ω)	Z (Ω)	-Phase (°)	Time (s)
1	1000000	3208.24	6136.11	6924.21	62.3974	475.344
2	794330	4579.47	6491.39	7944.16	54.7983	477.765
3	630960	5997.86	7119.63	9309.32	49.8879	480.236
4	501190	7443.33	7810.49	10789.2	46.3788	482.732
5	398110	9278.51	8842.24	12817	43.6208	492.127
6	316230	11003.8	9395.66	14469.4	40.4925	494.484
7	251190	12533.1	9497.38	15725.1	37.1542	504.494
8	199530	14295	9815.09	17340.2	34.4738	506.705
9	158490	16105.2	9968.52	18940.7	31.756	509.221
10	125890	17873.3	9919.62	20441.5	29.0301	511.507
11	100000	19600	9765.29	21898	26.4838	514.213
12	79433	21229	9494.23	23255.3	24.0956	516.644
13	63096	22829.2	9135.8	24589.3	21.8104	518.94
14	50119	24335.1	8644.4	25824.8	19.5563	521.351
15	39811	25637.8	8137.55	26898.2	17.6097	523.682
16	31623	26894.8	7496.79	27920.1	15.5755	525.888
17	25119	27943.8	6928.19	28789.9	13.9247	528.269
18	19953	28932.6	6373.76	29626.4	12.4236	530.705
19	15849	29787.9	5793.12	30346	11.0054	533.066
20	12589	30489.2	5289.3	30944.6	9.84177	535.422
21	10000	31142	4799.88	31509.7	8.76198	539.884
22	7943.3	31721.2	4402.55	32025.3	7.90153	542.28
23	6309.6	32245.8	4056.26	32499.9	7.16968	544.686
24	5011.9	32704.3	3759.55	32919.7	6.5577	547.023
25	3981.1	33140.7	3518.11	33327	6.05963	549.434
26	3162.3	33557	3321.24	33721	5.65233	551.81
27	2511.9	33936.9	3162.3	34083.9	5.32356	554.066
28	1995.3	34316.4	3039.58	34450.8	5.06177	556.427
29	1584.9	34690.4	2950.61	34815.6	4.86163	558.628
30	1258.9	35054.4	2893.7	35173.6	4.71901	560.864
31	1000	35430.9	2848.72	35545.2	4.59682	563.145
32	794.33	35793	2834.42	35905	4.52776	565.551
33	630.96	36172	2832.69	36282.8	4.47779	567.817
34	501.19	36557.7	2857.43	36669.2	4.46928	570.078
35	398.11	36937.4	2891.93	37050.4	4.47671	572.459
36	316.23	37334.8	2937.57	37450.2	4.49886	574.875
37	251.19	37749.1	3002.49	37868.3	4.54763	577.296
38	199.53	38162.2	3074.88	38285.9	4.60659	579.672
39	158.49	38573.9	3164.41	38703.5	4.68976	582.083
40	125.89	39017.9	3262.58	39154	4.77982	584.564
41	100	39435.1	3377.25	39579.4	4.89491	586.86
42	79.433	39895.7	3507.11	40049.6	5.02378	589.581
43	63.096	40407.9	3668.23	40574.1	5.18709	592.227
44	50.119	40892.9	3856.38	41074.3	5.38731	594.653
45	39.811	41420.5	4021.89	41615.3	5.54598	604.735
46	31.623	41955.5	4250.46	42170.3	5.78483	607.476
47	25.119	42521.9	4499.76	42759.3	6.04069	610.222
48	19.953	43091.3	4809.43	43358.9	6.36844	613.103
49	15.849	43709.7	5133.06	44010.1	6.69786	616.289
50	12.589	44342	5521.68	44684.5	7.0982	619.31
51	10	45013.2	5958.29	45405.9	7.54026	622.651
52	7.9433	45766.6	6484.73	46223.7	8.06464	626.107
53	6.3096	46550.4	7072.78	47084.7	8.63934	629.518
54	5.0119	47386.8	7764.67	48018.7	9.30564	632.999
55	3.9811	48288.7	8565.08	49042.4	10.0581	636.525
56	3.1623	49278.4	9517.21	50189	10.931	640.176
57	2.5119	50393.5	10560.2	51488.1	11.8354	643.977
58	1.9953	51544.9	11800.5	52878.4	12.8948	647.333
59	1.5849	52856.6	13245.4	54491	14.0681	650.879
60	1.2589	54294.4	14894.2	56300.3	15.3402	654.415
61	1	55896	16816.1	58370.8	16.7437	660.963
62	0.79433	57735.7	19030.7	60791.3	18.2431	664.799
63	0.63096	59757.2	21548.3	63523.7	19.8292	668.945
64	0.50119	61750.4	24601.9	66470.8	21.7228	673.411
65	0.39811	64253.6	28271.4	70198.3	23.7493	678.362
66	0.31623	66939.7	32344.6	74344.4	25.7894	683.778
67	0.25119	70050.1	37387.7	79403.2	28.0901	690.029
68	0.19953	74134.6	42902.4	85653.7	30.0584	697.08
69	0.15849	78331.5	49974.4	92915.4	32.5373	705.071
70	0.12589	83116.3	57588.2	101117	34.7166	714.253
71	0.1	87883.3	66429.9	110165	37.0852	725.164