File: data/20200619/Z_p38_2.txt
Index	Frequency (Hz)	Z' (Ω)	-Z'' (Ω)	Z (Ω)	-Phase (°)	Time (s)
1	1000000	3417.88	2907.33	4487.14	40.3853	417.989
2	794330	3913.57	2669.27	4737.2	34.2961	419.744
3	630960	4445.32	2547.86	5123.72	29.8194	421.714
4	501190	4960.39	2424.16	5521.05	26.0449	423.484
5	398110	5510.08	2283.78	5964.61	22.5127	429.04
6	316230	5909.33	2131.17	6281.89	19.8316	430.45
7	251190	6166.2	1861.63	6441.09	16.7995	434.88
8	199530	6482.43	1705.69	6703.08	14.7418	436.48
9	158490	6750.83	1541.37	6924.56	12.8615	437.975
10	125890	6975.13	1379.58	7110.26	11.1879	439.455
11	100000	7154.6	1225.98	7258.88	9.72349	441.025
12	79433	7308.74	1080.38	7388.16	8.40856	442.485
13	63096	7437.21	950.516	7497.7	7.28323	444.105
14	50119	7540.87	837.469	7587.24	6.33714	445.69
15	39811	7630.23	732.018	7665.27	5.47999	447.23
16	31623	7705.59	645.89	7732.61	4.79139	448.755
17	25119	7767.02	573.176	7788.14	4.22055	450.21
18	19953	7825.99	510.005	7842.59	3.72859	451.82
19	15849	7878.7	454.909	7891.82	3.30454	453.345
20	12589	7926.05	407.167	7936.5	2.94074	454.9
21	10000	7964.63	369.467	7973.2	2.65596	456.485
22	7943.3	8008.92	336.17	8015.97	2.40355	458.015
23	6309.6	8044.31	305.616	8050.12	2.17571	459.535
24	5011.9	8076.63	283.209	8081.59	2.00827	461.005
25	3981.1	8109.03	261.061	8113.23	1.84394	462.56
26	3162.3	8138.46	243.489	8142.1	1.71368	464.225
27	2511.9	8167.37	228.309	8170.56	1.60122	465.88
28	1995.3	8191.88	214.481	8194.68	1.49978	467.215
29	1584.9	8221.05	204.016	8223.58	1.42158	468.615
30	1258.9	8242.5	192.005	8244.74	1.33444	470.075
31	1000	8266.94	183.02	8268.96	1.26825	471.665
32	794.33	8290.62	173.245	8292.43	1.19711	473.335
33	630.96	8309.32	165.553	8310.97	1.1414	474.895
34	501.19	8331.48	159.274	8333	1.0952	476.555
35	398.11	8358.81	153.846	8360.22	1.05442	478.04
36	316.23	8380	148.904	8381.32	1.01798	479.46
37	251.19	8400.77	146.671	8402.05	1.00024	480.935
38	199.53	8419.39	142.172	8420.59	0.967417	482.426
39	158.49	8435.94	143.008	8437.15	0.9712	484.111
40	125.89	8457.21	143.566	8458.43	0.972532	485.876
41	100	8477.78	141.864	8478.96	0.958677	487.596
42	79.433	8494.08	147.962	8495.37	0.99796	489.206
43	63.096	8508.6	150.706	8509.93	1.01473	490.891
44	50.119	8472.38	196.605	8474.66	1.32933	492.491
45	39.811	8547.21	160.867	8548.73	1.07824	501.826
46	31.623	8567.09	173.18	8568.84	1.15805	503.786
47	25.119	8587.54	184.454	8589.52	1.23048	505.696
48	19.953	8609.03	193.188	8611.2	1.28551	507.671
49	15.849	8627.07	213.444	8629.71	1.41727	509.831
50	12.589	8658.19	226.258	8661.14	1.49693	511.931
51	10	8669.52	254.832	8673.26	1.68367	514.291
52	7.9433	8703.49	288.214	8708.26	1.89664	516.676
53	6.3096	8723.43	321.726	8729.36	2.11215	519.121
54	5.0119	8751.44	365.922	8759.09	2.3943	521.691
55	3.9811	8778.1	425.597	8788.41	2.77575	525.421
56	3.1623	8813.59	501.982	8827.87	3.25978	528.146
57	2.5119	8830.81	578.772	8849.76	3.74981	530.941
58	1.9953	8892.86	679.038	8918.75	4.3665	533.491
59	1.5849	8933.16	806.829	8969.52	5.16086	536.272
60	1.2589	8927.74	965.113	8979.76	6.16987	539.292
61	1	9025.52	1175.1	9101.7	7.41803	544.307
62	0.79433	9099.73	1409.27	9208.21	8.80342	547.552
63	0.63096	9190.24	1680.14	9342.56	10.3603	551.047
64	0.50119	9250.64	2040.04	9472.92	12.4363	554.862
65	0.39811	9358.69	2468.15	9678.68	14.7741	559.032
66	0.31623	9498.3	3044.3	9974.24	17.7712	563.797
67	0.25119	9685.59	3619.16	10339.7	20.4889	569.242
68	0.19953	9919.5	4384.58	10845.3	23.8462	575.492
69	0.15849	10184.1	5314.51	11487.4	27.5576	583.167
70	0.12589	10370.1	6456.38	12215.7	31.9063	591.733
71	0.1	10839.8	7936.78	13434.8	36.2111	601.938