File: data/20200619/Z_p47_2.txt
Index	Frequency (Hz)	Z' (Ω)	-Z'' (Ω)	Z (Ω)	-Phase (°)	Time (s)
1	1000000	2149.36	1297.08	2510.42	31.1099	384.908
2	794330	2321.87	1196.15	2611.87	27.256	386.298
3	630960	2526.22	1122.7	2764.46	23.9613	387.738
4	501190	2730.22	1041.81	2922.24	20.8861	389.278
5	398110	2916.6	935.256	3062.88	17.7793	393.383
6	316230	3067.13	846.751	3181.86	15.4334	394.713
7	251190	3151.05	723.956	3233.14	12.9392	398.728
8	199530	3274.32	649.274	3338.08	11.2158	400.118
9	158490	3372.92	574.899	3421.56	9.67286	401.503
10	125890	3449.94	506.714	3486.95	8.35564	402.778
11	100000	3511.11	443.346	3538.99	7.19662	404.203
12	79433	3562.49	386.377	3583.38	6.18994	405.458
13	63096	3602.44	336.295	3618.1	5.33322	406.808
14	50119	3638.46	293.824	3650.31	4.6169	408.233
15	39811	3665.03	255.914	3673.95	3.99425	409.548
16	31623	3687.13	224.641	3693.97	3.48647	410.858
17	25119	3710.14	200.289	3715.54	3.09008	412.238
18	19953	3728.16	179.506	3732.48	2.75659	413.628
19	15849	3745.17	162.34	3748.69	2.48201	414.908
20	12589	3762.8	148.633	3765.73	2.26205	416.193
21	10000	3776.75	137.431	3779.25	2.084	417.508
22	7943.3	3792.16	128.254	3794.33	1.93706	418.838
23	6309.6	3806.21	121.268	3808.14	1.82486	420.263
24	5011.9	3819.54	115.495	3821.29	1.73198	421.543
25	3981.1	3835.46	110.68	3837.05	1.65293	422.858
26	3162.3	3846.96	106.657	3848.44	1.58812	424.178
27	2511.9	3859.42	103.631	3860.81	1.53811	425.473
28	1995.3	3873.14	101.351	3874.46	1.49896	426.743
29	1584.9	3887.33	99.4386	3888.61	1.46532	428.039
30	1258.9	3901.33	97.6992	3902.56	1.43453	429.349
31	1000	3914.69	96.0175	3915.87	1.40504	430.629
32	794.33	3927.05	94.9393	3928.2	1.3849	432.069
33	630.96	3940.18	93.7615	3941.3	1.36317	433.829
34	501.19	3953.43	92.6212	3954.52	1.34208	435.119
35	398.11	3967.96	92.4228	3969.04	1.33431	436.369
36	316.23	3980.78	91.9155	3981.84	1.32272	437.704
37	251.19	3992.52	91.7596	3993.58	1.31659	439.039
38	199.53	4005.45	92.7374	4006.52	1.32632	440.399
39	158.49	4018.25	94.1137	4019.35	1.34171	441.809
40	125.89	4031.46	96.0382	4032.6	1.36465	443.209
41	100	4043.22	98.8844	4044.43	1.40099	444.544
42	79.433	4059.09	101.396	4060.36	1.43095	445.969
43	63.096	4069.66	105.222	4071.02	1.48107	447.449
44	50.119	4087.08	116.266	4088.73	1.62946	448.934
45	39.811	4097.44	114.731	4099.05	1.6039	458.039
46	31.623	4112.49	120.528	4114.25	1.67873	459.629
47	25.119	4127.28	128.553	4129.28	1.78402	461.254
48	19.953	4144.12	138.356	4146.42	1.91217	463.139
49	15.849	4160.1	150.347	4162.82	2.06979	465.109
50	12.589	4175.78	162.922	4178.96	2.23431	467.139
51	10	4193.03	179.078	4196.85	2.44553	469.479
52	7.9433	4211.85	199.217	4216.56	2.70802	471.754
53	6.3096	4229.97	222.545	4235.82	3.01164	474.129
54	5.0119	4249.21	250.697	4256.6	3.37645	476.574
55	3.9811	4273.18	283.986	4282.61	3.80216	478.949
56	3.1623	4300.39	330.598	4313.08	4.39604	481.54
57	2.5119	4319.49	378.506	4336.05	5.00789	484.115
58	1.9953	4353.74	438.461	4375.76	5.75081	486.825
59	1.5849	4391.11	515.677	4421.28	6.69794	489.555
60	1.2589	4426.99	593.782	4466.63	7.63936	492.46
61	1	4455.03	713.587	4511.82	9.10008	497.48
62	0.79433	4503.14	846.422	4582	10.6453	500.655
63	0.63096	4550.5	993.968	4657.79	12.3216	504.18
64	0.50119	4592.54	1199.81	4746.68	14.6413	507.98
65	0.39811	4641.93	1443.58	4861.22	17.275	512.125
66	0.31623	4735.15	1762.09	5052.39	20.4117	516.815
67	0.25119	4795.68	2102.37	5236.27	23.6721	522.325
68	0.19953	4893.56	2542.81	5514.78	27.4575	528.48
69	0.15849	5033.48	3084.76	5903.53	31.502	536.436
70	0.12589	5099.24	3787.14	6351.75	36.6008	545.021
71	0.1	5323.31	4679.35	7087.59	41.3164	555.251