File: data/20200619/Z_p49_1.txt
Index	Frequency (Hz)	Z' (Ω)	-Z'' (Ω)	Z (Ω)	-Phase (°)	Time (s)
1	1000000	1878.92	1194.73	2226.6	32.4507	24.2753
2	794330	2052.18	1138.68	2346.92	29.0243	25.6703
3	630960	2258.86	1091.6	2508.79	25.7923	27.1853
4	501190	2454.2	1036.92	2664.27	22.9046	28.6103
5	398110	2635.99	960.42	2805.5	20.0192	33.0104
6	316230	2804.66	895.66	2944.21	17.7107	34.3804
7	251190	2900.62	786.925	3005.46	15.1788	38.4605
8	199530	3036.37	726.481	3122.07	13.4556	39.7955
9	158490	3151.54	662	3220.32	11.8629	41.1306
10	125890	3246.36	597.18	3300.83	10.4232	42.4756
11	100000	3325.55	537.193	3368.65	9.17603	43.9256
12	79433	3392.73	481.993	3426.8	8.08571	45.2456
13	63096	3451.2	432.377	3478.18	7.14099	46.6807
14	50119	3501.02	388.757	3522.53	6.33623	47.9907
15	39811	3543.66	350.849	3560.98	5.65429	49.3507
16	31623	3580.39	318.835	3594.56	5.08879	50.6757
17	25119	3612.76	292.906	3624.62	4.63515	52.1208
18	19953	3646.56	271.434	3656.64	4.257	53.4258
19	15849	3676.05	254.345	3684.83	3.95798	54.7208
20	12589	3702.38	241.37	3710.24	3.73002	56.1408
21	10000	3731.1	232.091	3738.31	3.55947	57.4709
22	7943.3	3756.81	225.632	3763.58	3.43703	58.8659
23	6309.6	3784.33	221.48	3790.81	3.34945	60.2909
24	5011.9	3810.65	219.939	3816.99	3.30327	61.7359
25	3981.1	3838.51	220.363	3844.83	3.28566	63.156
26	3162.3	3866.74	222.813	3873.15	3.29791	64.491
27	2511.9	3894.46	227.189	3901.09	3.33865	65.906
28	1995.3	3924.91	232.477	3931.79	3.38973	67.2261
29	1584.9	3953.96	239.35	3961.2	3.46413	68.5411
30	1258.9	3985.65	247.457	3993.33	3.55277	69.8961
31	1000	4020.51	257.531	4028.75	3.66504	71.3761
32	794.33	4054.25	268.547	4063.14	3.78964	72.6962
33	630.96	4090.66	281.164	4100.31	3.93194	74.0012
34	501.19	4130.06	295.553	4140.62	4.0932	75.3962
35	398.11	4169.72	311.267	4181.32	4.26918	76.6362
36	316.23	4214.05	329.212	4226.89	4.46701	77.9312
37	251.19	4259.42	349.178	4273.71	4.68651	79.3763
38	199.53	4306	371.556	4322.01	4.93171	80.7013
39	158.49	4356.79	396.302	4374.78	5.19743	82.7513
40	125.89	4413.46	423.818	4433.76	5.48521	84.1564
41	100	4473.16	453.537	4496.1	5.78947	85.6814
42	79.433	4535.79	485.727	4561.72	6.11237	87.0964
43	63.096	4605.54	521.354	4634.96	6.45847	88.6664
44	50.119	4689.71	550.635	4721.92	6.69664	90.1165
45	39.811	4756.64	593.728	4793.56	7.11491	99.3216
46	31.623	4844.15	632.355	4885.25	7.43732	100.932
47	25.119	4933.9	673.121	4979.61	7.76877	102.572
48	19.953	5033.03	718.039	5083.99	8.11933	104.487
49	15.849	5133.03	761.104	5189.15	8.43412	106.432
50	12.589	5240.07	809.654	5302.25	8.78344	108.452
51	10	5350.21	860.704	5419	9.13904	110.782
52	7.9433	5467.49	914.376	5543.42	9.49421	113.217
53	6.3096	5586.19	975.521	5670.72	9.90573	115.547
54	5.0119	5709.77	1042.91	5804.24	10.3512	118.057
55	3.9811	5841.7	1122.73	5948.61	10.8791	120.542
56	3.1623	5979.91	1219.81	6103.05	11.5292	123.022
57	2.5119	6118.43	1328.73	6261.05	12.2526	125.537
58	1.9953	6289.42	1459.53	6456.55	13.0649	128.177
59	1.5849	6438.96	1560.04	6625.25	13.6192	130.877
60	1.2589	6570.67	1750.22	6799.78	14.9155	133.957
61	1	6812.31	1974.02	7092.56	16.1601	139.197
62	0.79433	7035.41	2209.12	7374.09	17.4323	142.427
63	0.63096	7281.66	2485.48	7694.17	18.8465	145.963
64	0.50119	7540.73	2805.32	8045.65	20.4064	149.808
65	0.39811	7857.16	3192.15	8480.85	22.1106	154.093
66	0.31623	8187.27	3628.83	8955.43	23.9043	158.893
67	0.25119	8628.15	4164.34	9580.54	25.7641	164.323
68	0.19953	9094.43	4751.26	10260.8	27.5842	170.528
69	0.15849	9651.36	5410.63	11064.5	29.2754	177.988
70	0.12589	10239.2	6113.33	11925.3	30.8394	186.698
71	0.1	10896.6	7064.93	12986.5	32.9577	197.038