File: data/20200619/Z_p47_3.txt
Index	Frequency (Hz)	Z' (Ω)	-Z'' (Ω)	Z (Ω)	-Phase (°)	Time (s)
1	1000000	2152.82	1306.81	2518.41	31.2587	619.857
2	794330	2317.71	1196.48	2608.32	27.3043	621.908
3	630960	2529.13	1121.96	2766.82	23.9227	624.099
4	501190	2727.78	1043.44	2920.54	20.933	626.265
5	398110	2912.06	934.048	3058.19	17.7837	633.329
6	316230	3073.44	843.187	3187.01	15.3414	635.33
7	251190	3153.58	723.98	3235.62	12.9296	642.184
8	199530	3276.84	651.298	3340.94	11.2415	644.13
9	158490	3372.04	577.647	3421.16	9.72069	646.386
10	125890	3453.01	507.543	3490.11	8.36177	648.317
11	100000	3512.19	443.249	3540.05	7.19288	650.528
12	79433	3562.08	386.069	3582.94	6.18573	652.519
13	63096	3603.82	336.797	3619.53	5.33909	654.611
14	50119	3638.06	293.354	3649.87	4.61005	656.737
15	39811	3667.04	256.912	3676.03	4.00758	658.793
16	31623	3691.13	224.141	3697.93	3.47497	660.829
17	25119	3710.44	200.158	3715.83	3.0878	662.845
18	19953	3731.52	179.851	3735.85	2.7594	664.836
19	15849	3746.24	161.711	3749.73	2.47171	666.957
20	12589	3764.53	148.654	3767.46	2.26133	668.998
21	10000	3778.92	137.169	3781.4	2.07883	670.954
22	7943.3	3794.17	128.495	3796.34	1.93966	672.895
23	6309.6	3807.82	120.876	3809.73	1.81819	674.891
24	5011.9	3820.47	115.007	3822.2	1.72425	677.062
25	3981.1	3835.53	110.625	3837.12	1.65208	679.108
26	3162.3	3850.74	106.974	3852.22	1.59127	681.104
27	2511.9	3862.11	103.916	3863.51	1.54125	683.075
28	1995.3	3875.38	101.139	3876.7	1.49496	685.076
29	1584.9	3890.24	99.3029	3891.51	1.46222	686.992
30	1258.9	3901.98	98.224	3903.21	1.442	688.938
31	1000	3915.43	96.2272	3916.61	1.40784	690.914
32	794.33	3928.49	94.8565	3929.63	1.38318	693
33	630.96	3941.48	93.8547	3942.6	1.36407	694.961
34	501.19	3956.52	92.6785	3957.6	1.34187	697.042
35	398.11	3968.45	92.1159	3969.51	1.32972	699.173
36	316.23	3981.63	91.6373	3982.68	1.31843	701.154
37	251.19	3995.29	91.7022	3996.34	1.31486	703.135
38	199.53	4007.36	92.7121	4008.43	1.32533	705.111
39	158.49	4018.56	93.7822	4019.66	1.33688	707.243
40	125.89	4033.88	96.4848	4035.03	1.37017	709.464
41	100	4046.93	98.1071	4048.12	1.38871	711.745
42	79.433	4058.34	101.153	4059.6	1.42779	713.951
43	63.096	4072.45	104.29	4073.79	1.46695	716.147
44	50.119	4095.31	102.036	4096.58	1.42725	718.208
45	39.811	4100.2	114.144	4101.79	1.59462	728.699
46	31.623	4112.47	119.48	4114.21	1.66415	731.03
47	25.119	4128.69	126.85	4130.64	1.75981	733.566
48	19.953	4141.67	139.356	4144.02	1.92711	736.212
49	15.849	4161.41	149.514	4164.1	2.05767	738.998
50	12.589	4177.43	162.152	4180.58	2.22289	741.669
51	10	4194.44	178.812	4198.25	2.44109	744.735
52	7.9433	4212.67	197.947	4217.32	2.69027	747.786
53	6.3096	4231.08	221.719	4236.88	2.9997	751.047
54	5.0119	4253.03	250.905	4260.42	3.37622	754.208
55	3.9811	4273.99	283.986	4283.41	3.80144	757.419
56	3.1623	4296.46	327.372	4308.91	4.35727	760.68
57	2.5119	4324.39	374.181	4340.55	4.94537	764.027
58	1.9953	4352.15	444.249	4374.77	5.82832	767.443
59	1.5849	4388.99	505.265	4417.98	6.56705	771.109
60	1.2589	4418.35	614.122	4460.82	7.91305	774.655
61	1	4453.63	710.415	4509.93	9.06311	781.252
62	0.79433	4502.31	844.81	4580.88	10.6274	785.128
63	0.63096	4551.54	992.868	4658.58	12.3057	789.299
64	0.50119	4590.15	1200.62	4744.57	14.6581	793.825
65	0.39811	4649.49	1450.85	4870.6	17.3303	798.861
66	0.31623	4717.99	1728.54	5024.67	20.1214	804.387
67	0.25119	4798.45	2094.76	5235.75	23.5836	810.748
68	0.19953	4917.62	2586.86	5556.51	27.7461	817.825
69	0.15849	4980.19	3106.55	5869.66	31.9551	826.241
70	0.12589	5096.66	3796.58	6355.31	36.683	835.572
71	0.1	5294.53	4685.23	7069.9	41.5063	846.443