File: data/20200619/Z_p48_2.txt
Index	Frequency (Hz)	Z' (Ω)	-Z'' (Ω)	Z (Ω)	-Phase (°)	Time (s)
1	1000000	1859.69	1170.69	2197.49	32.1906	387.087
2	794330	2027.47	1108.56	2310.74	28.6684	388.532
3	630960	2219.62	1063.77	2461.36	25.6064	390.042
4	501190	2414.4	1009.35	2616.89	22.6876	391.682
5	398110	2589.34	921.982	2748.58	19.5992	395.982
6	316230	2754.33	852.13	2883.14	17.1909	397.367
7	251190	2841.63	740.55	2936.54	14.6068	401.652
8	199530	2970	675.662	3045.88	12.8164	403.102
9	158490	3077.04	607.716	3136.48	11.1722	404.407
10	125890	3161.47	540.9	3207.41	9.7088	405.772
11	100000	3231.2	477.977	3266.36	8.41449	407.252
12	79433	3289.99	421.453	3316.87	7.29994	408.647
13	63096	3338.86	370.477	3359.35	6.3316	410.132
14	50119	3377.07	326.05	3392.77	5.51472	411.557
15	39811	3410.52	287.452	3422.61	4.81773	412.942
16	31623	3439.88	253.34	3449.2	4.21211	414.397
17	25119	3464.47	226.52	3471.87	3.74088	415.852
18	19953	3486.86	203.948	3492.82	3.34744	417.282
19	15849	3507.16	184.81	3512.02	3.01641	418.642
20	12589	3525.76	169.463	3529.83	2.75176	419.947
21	10000	3543.35	157.648	3546.86	2.54747	421.282
22	7943.3	3561.97	147.378	3565.02	2.36929	422.702
23	6309.6	3577.01	139.681	3579.73	2.23624	424.052
24	5011.9	3594.12	134.313	3596.63	2.14016	425.467
25	3981.1	3609.36	129.766	3611.69	2.05905	426.852
26	3162.3	3622.78	126.721	3624.99	2.00334	428.228
27	2511.9	3639.8	125.069	3641.95	1.968	429.688
28	1995.3	3653.06	124.737	3655.19	1.95566	431.148
29	1584.9	3669.69	124.417	3671.8	1.94181	432.463
30	1258.9	3686.42	125.886	3688.57	1.95581	433.763
31	1000	3701.44	127.346	3703.63	1.97045	435.158
32	794.33	3717.57	130.195	3719.84	2.00576	436.508
33	630.96	3733.35	133.728	3735.74	2.05145	437.863
34	501.19	3753.04	138.287	3755.59	2.1102	439.328
35	398.11	3770.54	144.163	3773.29	2.18958	440.653
36	316.23	3788.83	151.083	3791.84	2.2835	442.548
37	251.19	3809.69	160.164	3813.06	2.40737	443.878
38	199.53	3827.46	171.001	3831.28	2.55812	445.198
39	158.49	3850.62	183.145	3854.97	2.72308	446.653
40	125.89	3872.5	198.456	3877.58	2.9337	448.158
41	100	3898.11	216.383	3904.11	3.17722	449.573
42	79.433	3922.19	236.396	3929.31	3.44912	450.968
43	63.096	3948.12	260.355	3956.7	3.77285	452.483
44	50.119	3981.24	283.85	3991.35	4.0781	453.983
45	39.811	4018.02	319	4030.66	4.53932	463.253
46	31.623	4058.48	354.78	4073.95	4.99593	465.058
47	25.119	4104.16	395.475	4123.17	5.50401	466.818
48	19.953	4151.7	441.071	4175.06	6.06428	468.733
49	15.849	4210.49	489.64	4238.87	6.63315	470.728
50	12.589	4272.82	542.96	4307.18	7.24193	472.773
51	10	4345.7	603.025	4387.34	7.90012	475.088
52	7.9433	4422.18	666.881	4472.18	8.5758	477.433
53	6.3096	4508.07	737.443	4567.99	9.29032	479.933
54	5.0119	4599.09	812.664	4670.33	10.0208	482.374
55	3.9811	4697.08	897.93	4782.14	10.8225	484.954
56	3.1623	4800.83	986.187	4901.07	11.6082	487.494
57	2.5119	4912.53	1101.93	5034.6	12.6427	490.224
58	1.9953	5034.39	1220.38	5180.19	13.6261	493.174
59	1.5849	5158.88	1383.47	5341.16	15.012	496.124
60	1.2589	5290.01	1561.32	5515.61	16.4437	499.154
61	1	5441.59	1761.11	5719.47	17.9336	504.534
62	0.79433	5607.87	2006.25	5955.94	19.685	507.724
63	0.63096	5775.79	2310.96	6220.96	21.8069	511.274
64	0.50119	5947.32	2675.07	6521.25	24.218	515.424
65	0.39811	6144.98	3101.18	6883.17	26.7787	519.799
66	0.31623	6386.69	3633.72	7348.04	29.6378	526.319
67	0.25119	6649.44	4316.57	7927.66	32.9901	532.149
68	0.19953	6944.71	5072.66	8600.05	36.1457	540.91
69	0.15849	7276.13	6030.5	9450.34	39.6522	548.36
70	0.12589	7712.19	7218.06	10563.1	43.1044	557.265
71	0.1	8259.44	8522.07	11867.8	45.8966	567.76