File: data/20200619/Z_p42_2.txt
Index	Frequency (Hz)	Z' (Ω)	-Z'' (Ω)	Z (Ω)	-Phase (°)	Time (s)
1	1000000	2710.99	1851.67	3283.01	34.334	342.771
2	794330	2970.47	1699.56	3422.31	29.7761	344.166
3	630960	3279.39	1604.49	3650.86	26.0709	345.521
4	501190	3579.29	1506.06	3883.23	22.82	347.001
5	398110	3881.33	1375.66	4117.9	19.5159	351.126
6	316230	4111.34	1265.17	4301.6	17.1045	352.491
7	251190	4246.96	1097.13	4386.38	14.4847	356.471
8	199530	4435.4	1001.8	4547.13	12.7275	357.801
9	158490	4590.31	902.489	4678.18	11.1229	359.231
10	125890	4714.14	805.575	4782.47	9.69731	360.491
11	100000	4817.81	716.797	4870.84	8.46243	361.881
12	79433	4905.98	636.6	4947.11	7.3934	363.131
13	63096	4977.75	564.215	5009.62	6.46673	364.576
14	50119	5041.18	501.533	5066.07	5.6815	365.991
15	39811	5096.53	446.246	5116.03	5.00399	367.421
16	31623	5141.25	396.248	5156.49	4.40721	368.696
17	25119	5179.78	358.914	5192.2	3.96377	369.961
18	19953	5217.4	326.826	5227.63	3.58441	371.281
19	15849	5252.74	299.837	5261.29	3.26701	372.636
20	12589	5284.77	275.769	5291.96	2.98709	373.907
21	10000	5313.31	257.822	5319.56	2.77803	375.177
22	7943.3	5345.7	243.183	5351.23	2.60467	376.497
23	6309.6	5370.5	231.925	5375.51	2.47278	377.842
24	5011.9	5397.14	222.144	5401.71	2.35694	379.132
25	3981.1	5427.08	215.349	5431.35	2.27233	380.472
26	3162.3	5452.04	211.036	5456.12	2.21669	381.822
27	2511.9	5479.43	206.671	5483.32	2.16004	383.117
28	1995.3	5503.95	205.169	5507.77	2.13481	384.432
29	1584.9	5530.79	204.481	5534.57	2.11734	385.692
30	1258.9	5558.51	205.226	5562.3	2.11446	386.932
31	1000	5586.7	206.281	5590.51	2.1146	388.402
32	794.33	5611.63	209.083	5615.52	2.13379	389.807
33	630.96	5639.61	213.118	5643.64	2.16415	391.112
34	501.19	5670.09	217.596	5674.27	2.19771	392.492
35	398.11	5698.79	224.61	5703.21	2.25707	393.707
36	316.23	5728.34	232.652	5733.07	2.32575	395.062
37	251.19	5758.35	242.51	5763.46	2.41156	396.347
38	199.53	5791.52	255.303	5797.14	2.52409	397.622
39	158.49	5825.5	269.572	5831.73	2.64944	398.987
40	125.89	5860.57	286.402	5867.56	2.79778	400.402
41	100	5896.36	307.115	5904.35	2.98158	401.777
42	79.433	5931.71	329.499	5940.86	3.17944	403.142
43	63.096	5978.12	356.532	5988.74	3.41305	404.552
44	50.119	6035.93	382.842	6048.06	3.62925	405.872
45	39.811	6070.82	420.413	6085.36	3.96149	415.017
46	31.623	6119.9	459.027	6137.09	4.28948	416.647
47	25.119	6182.27	501.234	6202.56	4.63518	418.277
48	19.953	6245.57	554.59	6270.14	5.07441	420.197
49	15.849	6314.51	606.845	6343.61	5.48945	422.182
50	12.589	6391.81	670.05	6426.84	5.98442	424.287
51	10	6471.43	740.456	6513.65	6.52735	426.562
52	7.9433	6561.27	817.418	6611.99	7.10145	428.858
53	6.3096	6660.23	906.227	6721.6	7.7484	431.248
54	5.0119	6757.15	1006.78	6831.75	8.47445	433.638
55	3.9811	6872.8	1120.07	6963.47	9.25616	435.988
56	3.1623	7006.95	1255.73	7118.58	10.1603	438.518
57	2.5119	7131.84	1413.49	7270.56	11.2105	441.063
58	1.9953	7274.14	1579.5	7443.65	12.251	443.768
59	1.5849	7457.13	1816.93	7675.29	13.6933	446.563
60	1.2589	7641.37	2073.64	7917.73	15.1827	449.498
61	1	7819.9	2376.68	8173.09	16.9054	454.528
62	0.79433	8051.01	2729.47	8501.11	18.7278	457.658
63	0.63096	8314.1	3139.98	8887.28	20.69	461.183
64	0.50119	8578.5	3636.76	9317.55	22.974	464.918
65	0.39811	8906.94	4225.04	9858.23	25.3775	469.093
66	0.31623	9287.8	4964.19	10531.2	28.1239	473.823
67	0.25119	9758.63	5738.31	11320.7	30.4566	479.268
68	0.19953	10299.3	6708.63	12291.5	33.0788	485.504
69	0.15849	10863.4	7834.95	13394	35.8	492.724
70	0.12589	11565.1	9296.83	14838.6	38.7946	501.229
71	0.1	12530.1	10775.1	16525.9	40.6933	511.419