File: data/20200619/Z_p42_1.txt
Index	Frequency (Hz)	Z' (Ω)	-Z'' (Ω)	Z (Ω)	-Phase (°)	Time (s)
1	1000000	2713.51	1863.66	3291.86	34.4815	35.5004
2	794330	2977.75	1700.26	3428.98	29.7258	36.8854
3	630960	3287.46	1597.48	3655.04	25.9165	38.2355
4	501190	3572.97	1504.2	3876.69	22.8308	39.6805
5	398110	3883.8	1378.24	4121.09	19.5382	43.7706
6	316230	4115.37	1267.01	4305.99	17.1122	45.0456
7	251190	4245.25	1095.77	4384.39	14.4731	49.0457
8	199530	4433.34	1001.08	4544.96	12.7244	50.3507
9	158490	4585.71	901.493	4673.48	11.1218	51.7807
10	125890	4710.52	805.136	4778.83	9.69944	53.0907
11	100000	4815.92	716.765	4868.96	8.46534	54.4608
12	79433	4903.54	635.74	4944.58	7.38714	55.7258
13	63096	4974.16	563.565	5005.99	6.46396	57.0808
14	50119	5041.45	500.808	5066.26	5.67304	58.4358
15	39811	5092.23	445.151	5111.65	4.99596	59.8009
16	31623	5135.27	397.162	5150.61	4.42245	61.0659
17	25119	5177.83	359.106	5190.27	3.96737	62.3509
18	19953	5215.42	325.487	5225.56	3.57112	63.636
19	15849	5250.85	299.302	5259.37	3.26237	64.986
20	12589	5283.88	276.047	5291.09	2.9906	66.311
21	10000	5312.15	257.656	5318.4	2.77685	67.596
22	7943.3	5340.23	242.659	5345.74	2.60172	68.861
23	6309.6	5368.52	231.334	5373.5	2.46739	70.2111
24	5011.9	5397.64	222.461	5402.22	2.36008	71.4711
25	3981.1	5422.93	215.291	5427.2	2.27345	72.7211
26	3162.3	5449.09	209.882	5453.13	2.20576	74.0161
27	2511.9	5475.1	206.6	5479	2.161	75.3862
28	1995.3	5500.33	205.171	5504.15	2.13623	76.6912
29	1584.9	5527.37	204.194	5531.14	2.11568	77.9162
30	1258.9	5554.38	205.418	5558.18	2.118	79.1812
31	1000	5582.44	206.79	5586.27	2.12143	80.5313
32	794.33	5610.5	209.086	5614.39	2.13425	81.9013
33	630.96	5636.24	212.403	5640.24	2.15818	83.1763
34	501.19	5665.98	217.522	5670.15	2.19856	84.4613
35	398.11	5695.07	224.009	5699.48	2.2525	85.7964
36	316.23	5726.03	232.814	5730.76	2.32831	87.0614
37	251.19	5755.78	242.858	5760.9	2.41609	88.4714
38	199.53	5787	255.059	5792.61	2.52365	89.7914
39	158.49	5819.36	268.893	5825.57	2.64557	91.1715
40	125.89	5852.59	286.188	5859.58	2.7995	92.5415
41	100	5894.38	306.589	5902.35	2.97748	93.8615
42	79.433	5930.77	329.246	5939.9	3.1775	95.2215
43	63.096	5972	356.147	5982.61	3.41286	96.6416
44	50.119	6018.36	379.85	6030.34	3.61144	98.0916
45	39.811	6066.68	418.497	6081.1	3.94618	107.222
46	31.623	6118.55	457.288	6135.61	4.27423	108.907
47	25.119	6177.65	500.163	6197.87	4.62876	110.582
48	19.953	6240.52	550.354	6264.74	5.0399	112.502
49	15.849	6308.33	604.144	6337.19	5.47049	114.432
50	12.589	6385.75	666.258	6420.42	5.95641	116.417
51	10	6467.68	734.28	6509.23	6.47709	118.737
52	7.9433	6557.43	812.076	6607.52	7.0596	120.997
53	6.3096	6651.3	899.43	6711.84	7.70117	123.347
54	5.0119	6755.98	1002.8	6830	8.44284	125.647
55	3.9811	6865.03	1115.53	6955.07	9.22957	128.122
56	3.1623	6982.4	1251.85	7093.73	10.1643	130.667
57	2.5119	7114.63	1408.61	7252.73	11.199	133.152
58	1.9953	7261.28	1596.83	7434.79	12.4025	135.812
59	1.5849	7413.11	1803.84	7629.42	13.676	138.562
60	1.2589	7618.99	2074.1	7896.26	15.2285	141.457
61	1	7805.28	2367.39	8156.41	16.8729	146.472
62	0.79433	8033.76	2722.49	8482.53	18.7206	149.563
63	0.63096	8292.32	3122.37	8860.69	20.6332	153.078
64	0.50119	8562.44	3625.2	9298.25	22.947	156.918
65	0.39811	8889.08	4208.88	9835.16	25.3371	161.123
66	0.31623	9264.64	4944.94	10501.7	28.0908	165.863
67	0.25119	9727.48	5719.34	11284.3	30.4537	171.253
68	0.19953	10269.8	6680.13	12251.3	33.0425	177.413
69	0.15849	10830.5	7826.41	13362.3	35.8529	184.638
70	0.12589	11571.8	9280.8	14833.7	38.7304	193.103
71	0.1	12465.9	10726.3	16445.4	40.7103	203.334