File: data/20200619/Z_p44_1.txt
Index	Frequency (Hz)	Z' (Ω)	-Z'' (Ω)	Z (Ω)	-Phase (°)	Time (s)
1	1000000	2782.08	2015.07	3435.18	35.9159	27.6373
2	794330	3090.6	1878.97	3616.95	31.2981	29.0223
3	630960	3449.71	1775.67	3879.89	27.2362	30.4473
4	501190	3788.85	1673.52	4141.98	23.8309	31.9774
5	398110	4119.33	1553.6	4402.57	20.664	36.9025
6	316230	4386.29	1437.82	4615.93	18.149	38.1825
7	251190	4550.67	1248.54	4718.84	15.3424	42.1976
8	199530	4766.56	1140.19	4901.03	13.4527	43.5476
9	158490	4941.49	1029.14	5047.52	11.7645	44.9226
10	125890	5086	919.61	5168.47	10.249	46.2276
11	100000	5205.72	816.735	5269.4	8.91656	47.7477
12	79433	5306.1	723.072	5355.14	7.76	49.1577
13	63096	5387.76	639.816	5425.62	6.77236	50.5127
14	50119	5461.22	566.309	5490.5	5.92021	51.8077
15	39811	5518.92	502.777	5541.78	5.20531	53.2128
16	31623	5569.6	447.243	5587.53	4.59104	54.5228
17	25119	5618.36	399.637	5632.55	4.06863	55.9378
18	19953	5657.77	360.997	5669.27	3.65084	57.2178
19	15849	5697.14	328.122	5706.58	3.29626	58.5029
20	12589	5731.5	301.582	5739.43	3.01203	59.8279
21	10000	5762.07	279.686	5768.85	2.7789	61.2129
22	7943.3	5794.89	260.701	5800.76	2.57589	62.6329
23	6309.6	5825.43	244.248	5830.55	2.40088	64.053
24	5011.9	5853.37	234.067	5858.05	2.28995	65.453
25	3981.1	5878.95	222.678	5883.17	2.16917	66.713
26	3162.3	5907.38	214.759	5911.28	2.08204	67.983
27	2511.9	5936.6	208.673	5940.26	2.01313	69.3081
28	1995.3	5960.6	203.866	5964.08	1.95888	70.5531
29	1584.9	5987.21	199.868	5990.55	1.91197	71.8181
30	1258.9	6013.54	197.41	6016.78	1.88021	73.1281
31	1000	6040.75	194.963	6043.89	1.84856	74.4482
32	794.33	6067.01	194.268	6070.12	1.83401	75.8382
33	630.96	6090.38	193.415	6093.45	1.81896	77.1332
34	501.19	6119.66	193.509	6122.71	1.81114	78.4282
35	398.11	6144.53	194.601	6147.61	1.81399	79.7083
36	316.23	6171.43	197.293	6174.59	1.83105	81.1233
37	251.19	6199.02	200.813	6202.28	1.85541	82.4233
38	199.53	6226.88	206.817	6230.31	1.9023	83.7033
39	158.49	6253.16	213.411	6256.8	1.95466	85.0784
40	125.89	6281.25	223.373	6285.22	2.03669	86.5284
41	100	6313.56	233.138	6317.86	2.11477	87.9484
42	79.433	6338.77	247.514	6343.6	2.23613	89.3334
43	63.096	6371.88	263.31	6377.31	2.36633	90.7485
44	50.119	6394.19	287.483	6400.64	2.57429	92.1685
45	39.811	6435.24	301.957	6442.32	2.68648	101.384
46	31.623	6475.41	325.329	6483.58	2.87616	102.999
47	25.119	6519.44	354.664	6529.08	3.11388	104.749
48	19.953	6563.03	389.891	6574.6	3.39978	106.724
49	15.849	6608.87	424.15	6622.47	3.67215	108.684
50	12.589	6666.61	466.545	6682.92	4.00316	110.834
51	10	6725.95	514.714	6745.62	4.37612	113.119
52	7.9433	6787.93	565.924	6811.48	4.76585	115.419
53	6.3096	6853.32	628.237	6882.06	5.2376	117.714
54	5.0119	6933.03	695.186	6967.79	5.726	120.139
55	3.9811	7014.28	771.697	7056.6	6.27832	122.584
56	3.1623	7099.35	854.254	7150.56	6.86133	125.144
57	2.5119	7202.32	960.586	7266.1	7.5968	127.694
58	1.9953	7324.42	1097.95	7406.26	8.5253	130.339
59	1.5849	7436.19	1207.94	7533.66	9.22655	133.099
60	1.2589	7537.51	1394.49	7665.42	10.4816	136.034
61	1	7694.45	1561.44	7851.29	11.4713	141.204
62	0.79433	7878.4	1775.95	8076.09	12.7033	144.374
63	0.63096	8040.33	2015.79	8289.17	14.0745	148.01
64	0.50119	8255.93	2325.7	8577.25	15.7326	151.795
65	0.39811	8463.84	2667.71	8874.3	17.4943	156.125
66	0.31623	8751.39	3088.69	9280.46	19.4398	160.87
67	0.25119	9021.95	3530.69	9688.21	21.3726	166.355
68	0.19953	9363.02	4065.11	10207.4	23.4689	172.52
69	0.15849	9736.01	4727.19	10823	25.8983	179.835
70	0.12589	10241.3	5525.64	11636.9	28.3489	188.335
71	0.1	10716	6291.34	12426.3	30.4172	198.545