File: data/20200619/Z_p45_3.txt
Index	Frequency (Hz)	Z' (Ω)	-Z'' (Ω)	Z (Ω)	-Phase (°)	Time (s)
1	1000000	1850.14	1118.93	2162.18	31.1648	791.84
2	794330	1999.18	1047.78	2257.12	27.6593	793.916
3	630960	2182.92	995.687	2399.28	24.5189	796.107
4	501190	2363.86	935.148	2542.11	21.5839	798.313
5	398110	2521.79	848.272	2660.63	18.5918	805.192
6	316230	2666.4	777.394	2777.42	16.2541	807.293
7	251190	2746.67	669.451	2827.08	13.6977	814.232
8	199530	2862.23	606.86	2925.86	11.9708	816.279
9	158490	2954.98	542.421	3004.35	10.4015	818.465
10	125890	3030.15	480.053	3067.94	9.00229	820.501
11	100000	3090.01	422.543	3118.77	7.78662	822.697
12	79433	3140.83	370.56	3162.61	6.72873	824.803
13	63096	3179.79	324.569	3196.31	5.82814	826.964
14	50119	3215.42	284.803	3228.01	5.06171	829.125
15	39811	3244.73	250.095	3254.35	4.4075	831.311
16	31623	3266.89	219.793	3274.27	3.84901	833.307
17	25119	3287.85	197.153	3293.75	3.43159	835.248
18	19953	3307.47	177.33	3312.22	3.06898	837.319
19	15849	3325.53	161.477	3329.45	2.77992	839.41
20	12589	3341.67	148.329	3344.96	2.54155	841.511
21	10000	3359.06	137.616	3361.88	2.34601	843.592
22	7943.3	3372	129.699	3374.49	2.20271	845.553
23	6309.6	3385.62	123.089	3387.85	2.08216	847.639
24	5011.9	3400.09	118.478	3402.16	1.99569	849.635
25	3981.1	3411.5	115.122	3413.45	1.93272	851.861
26	3162.3	3428.25	113.368	3430.13	1.89402	853.872
27	2511.9	3440.75	112.046	3442.58	1.86514	855.853
28	1995.3	3455.42	111.525	3457.22	1.8486	857.854
29	1584.9	3469.84	112.231	3471.66	1.85257	860.88
30	1258.9	3482.72	112.941	3484.55	1.85738	862.886
31	1000	3498.39	114.989	3500.28	1.88258	864.962
32	794.33	3514.48	117.448	3516.45	1.91401	867.188
33	630.96	3530.95	120.566	3533	1.95564	869.249
34	501.19	3546.07	124.591	3548.26	2.01226	871.226
35	398.11	3562.69	129.451	3565.04	2.08094	873.297
36	316.23	3580.72	134.869	3583.25	2.15704	875.318
37	251.19	3597.74	141.007	3600.5	2.24445	877.504
38	199.53	3616.93	149.716	3620.02	2.37029	879.625
39	158.49	3636.75	159.09	3640.23	2.50482	881.666
40	125.89	3657.57	169.703	3661.51	2.6565	883.712
41	100	3679.61	182.562	3684.13	2.84038	885.883
42	79.433	3701.57	196.137	3706.76	3.03312	888.039
43	63.096	3728.38	212.618	3734.44	3.26387	890.26
44	50.119	3756.78	234.432	3764.09	3.57076	892.451
45	39.811	3783.51	250.945	3791.82	3.79465	902.227
46	31.623	3818.37	274.489	3828.23	4.11172	904.643
47	25.119	3851.88	299.858	3863.53	4.45134	907.004
48	19.953	3892.4	329.823	3906.35	4.84339	909.6
49	15.849	3934.25	360.436	3950.72	5.23454	912.206
50	12.589	3981.2	395.329	4000.78	5.67083	914.882
51	10	4031.92	433.494	4055.16	6.1366	917.823
52	7.9433	4085.92	477.333	4113.71	6.66331	920.844
53	6.3096	4144.68	524.492	4177.74	7.21221	924.046
54	5.0119	4207.63	578.1	4247.16	7.82308	927.432
55	3.9811	4275.51	637.925	4322.84	8.48618	930.608
56	3.1623	4348.05	708.558	4405.41	9.25555	933.829
57	2.5119	4428.02	785.909	4497.22	10.0644	937.16
58	1.9953	4516.86	885.83	4602.9	11.0958	940.621
59	1.5849	4609.01	992.805	4714.72	12.1561	944.157
60	1.2589	4709.49	1117.96	4840.37	13.354	947.858
61	1	4808.25	1272.6	4973.81	14.8246	954.59
62	0.79433	4931.9	1455.41	5142.17	16.4414	958.411
63	0.63096	5051	1655.73	5315.45	18.1493	962.642
64	0.50119	5166.49	1921.1	5512.1	20.3971	967.333
65	0.39811	5313	2248.9	5769.36	22.9421	972.314
66	0.31623	5469.36	2616.61	6063.05	25.567	977.741
67	0.25119	5640.58	3101.99	6437.27	28.8082	983.902
68	0.19953	5896.15	3654.44	6936.82	31.7907	990.843
69	0.15849	6132.59	4384.33	7538.64	35.5618	998.824
70	0.12589	6409.14	5204.5	8256.14	39.0781	1008.08
71	0.1	6665.1	6164.4	9078.73	42.765	1018.98