File: data/20200619/Z_p47_1.txt
Index	Frequency (Hz)	Z' (Ω)	-Z'' (Ω)	Z (Ω)	-Phase (°)	Time (s)
1	1000000	2156.57	1307.83	2522.15	31.2343	98.9016
2	794330	2320.8	1196.69	2611.16	27.2774	100.337
3	630960	2528.86	1121.01	2766.19	23.9071	101.722
4	501190	2731.82	1036.75	2921.93	20.7822	103.237
5	398110	2917.66	937.254	3064.5	17.8088	107.347
6	316230	3073.32	849.407	3188.54	15.4498	108.657
7	251190	3152.37	723.672	3234.37	12.9291	112.747
8	199530	3274.49	650.621	3338.5	11.2379	114.052
9	158490	3374.08	577.885	3423.21	9.71886	115.377
10	125890	3450.97	507.324	3488.06	8.3631	116.677
11	100000	3512.25	443.393	3540.13	7.19506	118.072
12	79433	3565.6	390.658	3586.93	6.25257	119.347
13	63096	3603.85	336.47	3619.53	5.33389	120.887
14	50119	3638.81	293.158	3650.6	4.60605	122.322
15	39811	3666.69	256.429	3675.64	4.00045	123.667
16	31623	3689.16	224.553	3695.99	3.4832	125.022
17	25119	3711.74	200.061	3717.12	3.08523	126.387
18	19953	3730.46	179.743	3734.79	2.75852	127.672
19	15849	3748.55	162.478	3752.07	2.48189	128.987
20	12589	3764.38	148.592	3767.31	2.26048	130.347
21	10000	3778.13	137.537	3780.63	2.08484	131.692
22	7943.3	3792.41	128.264	3794.57	1.93708	133.012
23	6309.6	3808.66	120.967	3810.58	1.81916	134.322
24	5011.9	3820.74	115.401	3822.48	1.73003	135.677
25	3981.1	3833.56	110.395	3835.14	1.64949	137.042
26	3162.3	3848.83	106.923	3850.31	1.5913	138.427
27	2511.9	3863.16	104.051	3864.56	1.54284	140.257
28	1995.3	3874.18	100.689	3875.49	1.48877	141.572
29	1584.9	3888.54	99.4942	3889.81	1.46568	142.807
30	1258.9	3899.71	98.1377	3900.95	1.44157	144.057
31	1000	3915.92	95.8346	3917.09	1.40192	145.432
32	794.33	3926.72	94.5551	3927.86	1.37941	146.772
33	630.96	3941.74	93.5764	3942.85	1.35994	148.043
34	501.19	3953.82	92.6458	3954.9	1.34231	149.408
35	398.11	3967.2	92.2161	3968.27	1.33158	150.743
36	316.23	3981.94	91.5123	3982.99	1.31653	152.148
37	251.19	3995.8	91.836	3996.86	1.3166	153.498
38	199.53	4006.89	92.3106	4007.95	1.31975	154.793
39	158.49	4019.87	94.0016	4020.97	1.33957	156.113
40	125.89	4032.18	95.2293	4033.3	1.35292	157.543
41	100	4044.95	98.3062	4046.15	1.39221	158.948
42	79.433	4058.8	100.835	4060.05	1.42314	160.333
43	63.096	4071.34	104.393	4072.67	1.4688	161.768
44	50.119	4083.87	106.932	4085.27	1.49989	163.203
45	39.811	4097.37	114.423	4098.97	1.59962	172.268
46	31.623	4111.36	121.275	4113.15	1.68959	173.863
47	25.119	4126.33	128.333	4128.32	1.78139	175.468
48	19.953	4138.9	137.24	4141.18	1.89915	177.403
49	15.849	4157.21	149.761	4159.91	2.06315	179.333
50	12.589	4175.29	164.166	4178.52	2.25162	181.418
51	10	4190.32	176.561	4194.03	2.41276	183.713
52	7.9433	4210.09	197.733	4214.73	2.689	185.993
53	6.3096	4227.42	220.816	4233.19	2.99008	188.358
54	5.0119	4247.96	249.071	4255.26	3.35558	190.853
55	3.9811	4270.01	283.177	4279.39	3.79416	193.298
56	3.1623	4298.25	326.732	4310.65	4.34699	195.888
57	2.5119	4320.2	373.068	4336.28	4.93549	198.493
58	1.9953	4351.69	430.994	4372.98	5.65618	201.083
59	1.5849	4388.25	511.699	4417.98	6.65103	203.824
60	1.2589	4412.66	605.811	4454.05	7.81723	206.704
61	1	4448.81	709.002	4504.96	9.055	211.779
62	0.79433	4502.65	836.659	4579.73	10.5263	214.954
63	0.63096	4541.46	1001.05	4650.48	12.4307	218.479
64	0.50119	4603.56	1194.14	4755.91	14.5418	222.334
65	0.39811	4662.93	1447.65	4882.48	17.2474	226.529
66	0.31623	4736.6	1731.81	5043.27	20.0836	231.364
67	0.25119	4797.49	2128.23	5248.36	23.9227	236.879
68	0.19953	4879.64	2573.1	5516.49	27.8033	243.034
69	0.15849	5006.02	3143.02	5910.9	32.1226	250.289
70	0.12589	5182.31	3790.34	6420.52	36.1817	258.925
71	0.1	5228.52	4598.48	6963	41.3316	269.08