File: data/20200619/Z_p49_2.txt
Index	Frequency (Hz)	Z' (Ω)	-Z'' (Ω)	Z (Ω)	-Phase (°)	Time (s)
1	1000000	1880.92	1204.62	2233.6	32.6371	228.198
2	794330	2055.57	1136.53	2348.84	28.9382	229.658
3	630960	2256.55	1091.69	2506.75	25.817	231.123
4	501190	2452.2	1030.44	2659.9	22.7927	232.668
5	398110	2631.6	959.286	2800.99	20.0281	236.923
6	316230	2799.28	895.476	2939.02	17.7392	238.258
7	251190	2896.74	784.644	3001.13	15.1561	242.328
8	199530	3033.59	725.541	3119.14	13.4507	243.693
9	158490	3146.2	660.801	3214.84	11.8615	245.038
10	125890	3242.76	596.875	3297.24	10.4294	246.328
11	100000	3322.63	536.17	3365.62	9.16674	247.778
12	79433	3389.91	481.038	3423.87	8.07652	249.088
13	63096	3447.32	431.483	3474.22	7.13432	250.508
14	50119	3496.45	388.18	3517.93	6.3351	251.838
15	39811	3537.93	350.163	3555.22	5.65238	253.238
16	31623	3576.41	318.528	3590.57	5.08955	254.593
17	25119	3610.24	291.95	3622.02	4.62329	255.938
18	19953	3640.25	270.903	3650.31	4.25604	257.253
19	15849	3671.42	254.057	3680.2	3.95848	258.578
20	12589	3698.91	241.079	3706.76	3.72902	259.903
21	10000	3726.52	231.646	3733.71	3.55702	261.253
22	7943.3	3753.64	224.737	3760.36	3.4263	262.598
23	6309.6	3780.59	221.267	3787.06	3.34954	263.894
24	5011.9	3808.53	219.664	3814.86	3.30098	265.239
25	3981.1	3833.63	220.326	3839.96	3.28928	266.604
26	3162.3	3860.67	222.473	3867.07	3.29805	267.994
27	2511.9	3890.77	226.912	3897.38	3.33775	269.344
28	1995.3	3921.88	232.546	3928.76	3.39336	270.754
29	1584.9	3952.88	239.581	3960.13	3.46841	272.059
30	1258.9	3983.59	247.578	3991.27	3.55632	273.359
31	1000	4016.73	257.216	4024.96	3.66399	274.674
32	794.33	4050.93	268.235	4059.8	3.78835	276.029
33	630.96	4088.58	280.862	4098.22	3.92972	277.309
34	501.19	4125.56	294.702	4136.08	4.08587	278.639
35	398.11	4167.05	311.037	4178.64	4.26876	280.854
36	316.23	4208.95	328.832	4221.78	4.46726	282.229
37	251.19	4255.65	349.309	4269.96	4.6924	283.614
38	199.53	4304.24	371.636	4320.25	4.93479	284.869
39	158.49	4355.57	396.762	4373.61	5.20488	286.224
40	125.89	4412.01	423.951	4432.33	5.48871	287.674
41	100	4469.88	453.874	4492.86	5.79798	289.039
42	79.433	4532.61	486.107	4558.6	6.12138	290.429
43	63.096	4601.83	519.138	4631.02	6.43639	291.924
44	50.119	4678.67	551.206	4711.03	6.71919	293.319
45	39.811	4755.57	592.633	4792.35	7.10351	302.709
46	31.623	4841.63	633.287	4882.88	7.452	304.499
47	25.119	4931.06	672.833	4976.75	7.76991	306.129
48	19.953	5028.28	717.318	5079.19	8.11885	308.044
49	15.849	5130.78	761.047	5186.91	8.43715	310.114
50	12.589	5234.97	806.342	5296.7	8.75645	312.104
51	10	5346.65	858.705	5415.17	9.12414	314.494
52	7.9433	5464.42	912.752	5540.12	9.48288	316.789
53	6.3096	5583.92	972.518	5667.98	9.87976	319.17
54	5.0119	5709.53	1043.06	5804.03	10.353	321.65
55	3.9811	5839.4	1122.03	5946.22	10.8767	324.075
56	3.1623	5973.5	1211.36	6095.09	11.4635	326.63
57	2.5119	6127.71	1314.83	6267.18	12.1104	329.155
58	1.9953	6261.31	1457.36	6428.68	13.1027	331.835
59	1.5849	6439.6	1583.59	6631.46	13.8157	334.675
60	1.2589	6641.45	1743.95	6866.61	14.7129	337.655
61	1	6809.33	1971.06	7088.86	16.1439	342.645
62	0.79433	7035.72	2206.1	7373.48	17.4092	345.775
63	0.63096	7274.99	2493.48	7690.44	18.919	349.27
64	0.50119	7547.14	2810.24	8053.37	20.4232	353.15
65	0.39811	7848.28	3205.86	8477.79	22.219	357.425
66	0.31623	8202.28	3626.91	8968.39	23.8542	362.15
67	0.25119	8598.82	4177.1	9559.7	25.9093	367.655
68	0.19953	9059.9	4762.06	10235.2	27.7273	373.861
69	0.15849	9627.74	5433.49	11055.1	29.4385	381.036
70	0.12589	10257.7	6116.38	11942.8	30.8065	389.556
71	0.1	10890.4	7051.33	12973.9	32.9223	399.721