File: data/20200619/Z_p43_2.txt
Index	Frequency (Hz)	Z' (Ω)	-Z'' (Ω)	Z (Ω)	-Phase (°)	Time (s)
1	1000000	2744.66	2010.63	3402.32	36.225	458.105
2	794330	3031.63	1849.83	3551.43	31.3905	459.415
3	630960	3376.15	1761.54	3808.07	27.5537	460.84
4	501190	3712.45	1690.04	4079.03	24.4767	462.37
5	398110	4054.76	1566.08	4346.69	21.1182	467.36
6	316230	4331.64	1467.63	4573.51	18.7172	468.69
7	251190	4496.77	1290.25	4678.21	16.0096	472.655
8	199530	4718.56	1192.54	4866.93	14.1836	474.05
9	158490	4907.83	1086.83	5026.73	12.4866	475.46
10	125890	5063.41	982.594	5157.87	10.9822	476.715
11	100000	5195.76	883.23	5270.29	9.64753	478.1
12	79433	5302.85	787.749	5361.04	8.44962	479.41
13	63096	5405.61	709.491	5451.97	7.47738	480.8
14	50119	5490.73	634.403	5527.26	6.59077	482.091
15	39811	5563.83	568.402	5592.79	5.8331	483.456
16	31623	5625.08	508.651	5648.03	5.16694	484.741
17	25119	5678.54	461.676	5697.28	4.64804	486.066
18	19953	5728.1	419.627	5743.45	4.18987	487.441
19	15849	5776.02	383.992	5788.77	3.80345	488.831
20	12589	5818.2	353.99	5828.96	3.48169	490.106
21	10000	5858.69	327.586	5867.84	3.20033	491.386
22	7943.3	5898.62	306.206	5906.56	2.97164	492.706
23	6309.6	5931.75	288.369	5938.75	2.78321	494.016
24	5011.9	5966.89	273.117	5973.14	2.62072	495.321
25	3981.1	6000.67	261.965	6006.39	2.49971	496.601
26	3162.3	6031.14	250.922	6036.36	2.38238	497.976
27	2511.9	6058.98	244.451	6063.91	2.31035	499.371
28	1995.3	6091.22	238.609	6095.89	2.24328	500.656
29	1584.9	6121.65	234.125	6126.13	2.19023	501.946
30	1258.9	6151.65	232.229	6156.04	2.16193	503.231
31	1000	6180.4	230.114	6184.68	2.1323	504.506
32	794.33	6210.39	230.51	6214.67	2.12566	505.906
33	630.96	6243.03	231.625	6247.33	2.12478	507.276
34	501.19	6272.76	234.228	6277.13	2.13846	508.606
35	398.11	6305.07	238.414	6309.58	2.1655	509.881
36	316.23	6336.68	243.914	6341.38	2.20436	511.151
37	251.19	6367.89	251.634	6372.86	2.26293	512.596
38	199.53	6400.42	262.182	6405.79	2.34571	513.921
39	158.49	6433.64	275.28	6439.53	2.45005	515.331
40	125.89	6472.08	291.151	6478.62	2.57576	516.821
41	100	6509.31	311.78	6516.78	2.74223	518.211
42	79.433	6543.06	333.148	6551.54	2.91477	519.601
43	63.096	6586.13	361.094	6596.02	3.13818	521.026
44	50.119	6632.98	410.619	6645.68	3.54241	522.396
45	39.811	6677.14	426.03	6690.72	3.65076	531.566
46	31.623	6730.53	468.283	6746.8	3.97999	533.206
47	25.119	6783.98	515.366	6803.53	4.34431	534.886
48	19.953	6848.4	569.226	6872.02	4.75139	536.762
49	15.849	6920.12	627.058	6948.47	5.17765	538.742
50	12.589	6993.55	702.136	7028.71	5.73315	540.852
51	10	7073.27	782.105	7116.38	6.30967	543.067
52	7.9433	7156.5	871.757	7209.4	6.94517	545.332
53	6.3096	7256.85	975.366	7322.11	7.65503	547.727
54	5.0119	7362.01	1093.59	7442.79	8.4492	550.157
55	3.9811	7475.44	1232.33	7576.33	9.36105	552.662
56	3.1623	7599.24	1390.99	7725.5	10.3728	555.187
57	2.5119	7733.07	1604.51	7897.77	11.7218	557.662
58	1.9953	7865.31	1824.26	8074.09	13.0582	560.362
59	1.5849	8048.53	2091.64	8315.88	14.5677	563.142
60	1.2589	8221.24	2389.01	8561.32	16.2034	565.932
61	1	8404.35	2812.17	8862.36	18.5007	570.907
62	0.79433	8625.12	3278.2	9227.1	20.8106	574.017
63	0.63096	8883.69	3854.64	9683.92	23.456	577.602
64	0.50119	9137.83	4526.82	10197.6	26.3535	581.382
65	0.39811	9468.36	5380.81	10890.5	29.6093	585.647
66	0.31623	9801.24	6406.77	11709.4	33.1714	590.353
67	0.25119	10309.7	7674.69	12852.6	36.6645	595.808
68	0.19953	10795.2	9220.5	14197	40.5016	602.453
69	0.15849	11475.3	11027.8	15915.2	43.8607	609.693
70	0.12589	12268.8	13087	17938.6	46.8481	618.183
71	0.1	13075.9	15830.1	20532.2	50.4428	628.338