File: data/20200619/Z_p48_1.txt
Index	Frequency (Hz)	Z' (Ω)	-Z'' (Ω)	Z (Ω)	-Phase (°)	Time (s)
1	1000000	1858.95	1167	2194.91	32.1196	67.94
2	794330	2024.5	1110.66	2309.15	28.7495	69.4351
3	630960	2219.7	1065.82	2462.32	25.6486	70.9051
4	501190	2413.36	1005.46	2614.43	22.6176	72.4951
5	398110	2592.25	922.042	2751.35	19.58	76.8102
6	316230	2756.37	852.207	2885.1	17.1805	78.1602
7	251190	2845.31	742.499	2940.6	14.6255	82.3153
8	199530	2972.85	677.034	3048.97	12.8297	83.6803
9	158490	3077.8	608.718	3137.41	11.1874	85.0803
10	125890	3166.01	542.544	3212.16	9.72405	86.3954
11	100000	3235.37	478.945	3270.63	8.42057	87.7904
12	79433	3293.64	421.802	3320.53	7.2979	89.1254
13	63096	3340.81	371.142	3361.36	6.3392	90.5204
14	50119	3380.99	326.644	3396.74	5.51833	91.9455
15	39811	3413.93	286.974	3425.97	4.80498	93.2555
16	31623	3442.57	254.157	3451.94	4.22236	94.5755
17	25119	3466.98	226.964	3474.4	3.7455	96.0005
18	19953	3488.96	204.113	3494.92	3.34813	97.3806
19	15849	3507.65	185.799	3512.56	3.0321	98.7206
20	12589	3529.31	169.94	3533.4	2.75672	100.061
21	10000	3543.76	157.454	3547.25	2.54405	101.461
22	7943.3	3563.68	147.767	3566.74	2.3744	102.846
23	6309.6	3579.8	140.201	3582.55	2.24281	104.226
24	5011.9	3595.13	134.158	3597.63	2.13709	105.596
25	3981.1	3609.85	129.681	3612.18	2.05743	106.976
26	3162.3	3626.07	126.784	3628.28	2.00251	108.371
27	2511.9	3641.09	124.932	3643.23	1.96514	109.831
28	1995.3	3657.63	124.513	3659.75	1.94971	111.256
29	1584.9	3672.31	124.516	3674.42	1.94196	112.541
30	1258.9	3687.59	125.317	3689.72	1.94637	113.806
31	1000	3704.18	127.87	3706.39	1.97709	115.196
32	794.33	3720.29	130.371	3722.57	2.00701	116.646
33	630.96	3736.29	133.849	3738.69	2.0517	117.951
34	501.19	3755.38	138.267	3757.92	2.10858	119.336
35	398.11	3772.59	143.999	3775.34	2.18591	120.691
36	316.23	3791.67	151.214	3794.68	2.28378	122.086
37	251.19	3810.74	160.013	3814.1	2.40443	123.521
38	199.53	3830.63	170.569	3834.42	2.54957	124.866
39	158.49	3852.15	183.39	3856.51	2.72564	126.121
40	125.89	3873.46	198.589	3878.54	2.93494	127.551
41	100	3898.45	216.957	3904.48	3.18535	128.901
42	79.433	3924.32	236.455	3931.44	3.44812	130.336
43	63.096	3952.19	260.631	3960.77	3.77296	131.866
44	50.119	3981.72	283.897	3991.83	4.0783	133.321
45	39.811	4018.87	318.995	4031.51	4.53829	142.476
46	31.623	4057.96	353.967	4073.36	4.98517	144.166
47	25.119	4102.74	394.534	4121.67	5.49288	145.771
48	19.953	4154.14	440.879	4177.47	6.05813	147.627
49	15.849	4211.23	489.263	4239.56	6.62694	149.667
50	12.589	4275.15	544.034	4309.63	7.2522	151.757
51	10	4344.25	601.131	4385.65	7.87821	154.447
52	7.9433	4423.43	665.661	4473.23	8.55796	156.862
53	6.3096	4510.55	735.13	4570.06	9.25669	159.357
54	5.0119	4599.53	813.574	4670.93	10.0308	161.787
55	3.9811	4697.33	897.389	4782.28	10.8156	164.312
56	3.1623	4811.34	993.547	4912.86	11.6676	166.932
57	2.5119	4917.89	1103.76	5040.23	12.6497	169.517
58	1.9953	5035.58	1237.66	5185.45	13.8086	172.217
59	1.5849	5166.33	1382.54	5348.12	14.9817	175.082
60	1.2589	5293.26	1538.26	5512.24	16.2042	178.037
61	1	5443.76	1759.72	5721.11	17.9136	183.227
62	0.79433	5609.31	2012.03	5959.24	19.7327	186.532
63	0.63096	5771.61	2297.02	6211.9	21.7019	190.092
64	0.50119	5943.95	2661.88	6512.77	24.1243	194.062
65	0.39811	6162.43	3096.66	6896.73	26.6798	198.442
66	0.31623	6376.77	3636.07	7340.58	29.6921	203.348
67	0.25119	6678.66	4314.11	7950.85	32.8606	208.823
68	0.19953	6970.75	5116.8	8647.14	36.2801	215.148
69	0.15849	7348.82	6049.49	9518.48	39.4609	222.453
70	0.12589	7740.33	7117.13	10515	42.5981	231.048
71	0.1	8137.19	8586.49	11829.7	46.5389	241.233