File: data/20200619/Z_p43_3.txt
Index	Frequency (Hz)	Z' (Ω)	-Z'' (Ω)	Z (Ω)	-Phase (°)	Time (s)
1	1000000	2750.53	1997.53	3399.34	35.9886	775.791
2	794330	3039.66	1853.94	3560.43	31.3797	777.887
3	630960	3380.13	1765.98	3813.65	27.5852	780.018
4	501190	3723.81	1681.65	4085.91	24.3037	782.189
5	398110	4051.71	1567.99	4344.53	21.1562	789.068
6	316230	4334.83	1464.99	4575.69	18.6731	791.274
7	251190	4501.25	1294.19	4683.61	16.0409	798.043
8	199530	4725.09	1193.18	4873.41	14.1721	800.069
9	158490	4913.16	1088.18	5032.23	12.4884	802.12
10	125890	5070.35	983.583	5164.87	10.9783	804.176
11	100000	5202.27	884.575	5276.94	9.65008	806.232
12	79433	5316.8	794.106	5375.78	8.49478	808.173
13	63096	5414.96	711.162	5461.46	7.48199	810.159
14	50119	5496.4	636.481	5533.13	6.60541	812.305
15	39811	5569.24	569.261	5598.26	5.83623	814.486
16	31623	5629.48	509.754	5652.51	5.17407	816.503
17	25119	5684.71	462.197	5703.46	4.64823	818.554
18	19953	5737.44	421.083	5752.87	4.19754	820.675
19	15849	5784.07	386.1	5796.94	3.81896	822.646
20	12589	5826.95	353.604	5837.66	3.47269	824.772
21	10000	5866.9	327.719	5876.05	3.19716	826.738
22	7943.3	5904.39	307.007	5912.37	2.97649	828.939
23	6309.6	5940.32	287.904	5947.3	2.77473	831.015
24	5011.9	5970.54	273.504	5976.8	2.62283	832.941
25	3981.1	6008.37	261.913	6014.07	2.49602	835.027
26	3162.3	6041.1	251.893	6046.35	2.38765	837.003
27	2511.9	6071.21	245.077	6076.15	2.31161	838.989
28	1995.3	6099.13	238.365	6103.79	2.23808	840.955
29	1584.9	6131.71	234.954	6136.21	2.19438	842.921
30	1258.9	6160.36	231.912	6164.73	2.15593	844.847
31	1000	6188.98	231.031	6193.29	2.13782	846.858
32	794.33	6222.92	231.084	6227.21	2.12666	848.844
33	630.96	6253.68	232.28	6257.99	2.12716	850.8
34	501.19	6284.12	234.872	6288.5	2.14047	852.816
35	398.11	6311.75	239.123	6316.28	2.16963	854.737
36	316.23	6343.06	244.999	6347.79	2.21193	856.718
37	251.19	6377.15	253.016	6382.17	2.27204	858.794
38	199.53	6410.74	263.987	6416.18	2.35804	860.885
39	158.49	6444.04	277.305	6450	2.46407	862.846
40	125.89	6478.27	293.478	6484.91	2.59384	864.967
41	100	6513.91	311.053	6521.34	2.73392	866.963
42	79.433	6548.92	334.453	6557.45	2.92355	869.174
43	63.096	6594.68	361.196	6604.57	3.135	871.351
44	50.119	6627.7	401.512	6639.85	3.46679	873.467
45	39.811	6686.51	426.792	6700.12	3.65217	883.458
46	31.623	6735.59	467.036	6751.77	3.96645	885.889
47	25.119	6793.96	514.499	6813.42	4.33068	888.22
48	19.953	6857.41	572.306	6881.25	4.77073	890.771
49	15.849	6926.17	632.974	6955.03	5.22169	893.372
50	12.589	7003.59	703.807	7038.86	5.73853	896.153
51	10	7085.54	781.333	7128.48	6.29267	899.219
52	7.9433	7169.15	873.727	7222.19	6.94855	902.2
53	6.3096	7266.27	979.882	7332.05	7.6802	905.161
54	5.0119	7370.28	1094.36	7451.09	8.44576	908.207
55	3.9811	7482.6	1238.03	7584.33	9.39471	911.313
56	3.1623	7606.41	1393.64	7733.03	10.3825	914.674
57	2.5119	7741.55	1597.02	7904.56	11.6561	917.86
58	1.9953	7885.71	1845.51	8098.78	13.172	921.271
59	1.5849	8048.91	2124.08	8324.47	14.7832	924.748
60	1.2589	8199.97	2421.31	8549.98	16.451	928.264
61	1	8418.45	2818.06	8877.6	18.5079	934.691
62	0.79433	8660.88	3288.86	9264.31	20.7936	938.607
63	0.63096	8878.66	3861.28	9681.95	23.504	942.778
64	0.50119	9156.4	4537.26	10218.9	26.3597	947.184
65	0.39811	9470.16	5385.03	10894.1	29.6239	952.22
66	0.31623	9865.2	6460.4	11792.3	33.2195	957.751
67	0.25119	10325.2	7702.93	12882	36.724	964.092
68	0.19953	10773.5	9195.85	14164.5	40.4828	970.898
69	0.15849	11416.8	10953.9	15821.8	43.8146	978.84
70	0.12589	12169.7	13156.2	17921.7	47.2306	988.106
71	0.1	13177.6	15887	20640.9	50.3256	998.912