File: data/20200619/Z_p49_3.txt
Index	Frequency (Hz)	Z' (Ω)	-Z'' (Ω)	Z (Ω)	-Phase (°)	Time (s)
1	1000000	1887.64	1205.49	2239.72	32.5632	433.859
2	794330	2056.15	1135.56	2348.88	28.9108	436.136
3	630960	2257.12	1092.35	2507.55	25.8251	438.307
4	501190	2453.28	1031.67	2661.38	22.808	440.558
5	398110	2632.88	959.776	2802.36	20.0286	447.582
6	316230	2802.7	893.433	2941.66	17.681	449.628
7	251190	2897.99	785.302	3002.51	15.162	456.797
8	199530	3036.53	724.587	3121.78	13.4212	458.913
9	158490	3147.89	660.656	3216.47	11.8528	461.199
10	125890	3243	596.656	3297.43	10.4248	463.295
11	100000	3323.01	536.187	3365.99	9.16601	465.556
12	79433	3390.39	481.197	3424.37	8.07802	467.682
13	63096	3446.86	431.825	3473.8	7.14086	470.063
14	50119	3498.06	388.742	3519.59	6.34131	472.294
15	39811	3539.59	350.732	3556.92	5.65888	474.39
16	31623	3577.08	318.665	3591.24	5.09077	476.496
17	25119	3610.6	292.196	3622.41	4.62671	478.572
18	19953	3642.34	271.271	3652.43	4.25936	480.678
19	15849	3672.41	253.938	3681.18	3.95555	482.804
20	12589	3701.08	240.996	3708.92	3.72556	484.935
21	10000	3726.82	231.625	3734.01	3.55641	486.996
22	7943.3	3755.81	225.174	3762.56	3.43098	489.072
23	6309.6	3783	221.843	3789.5	3.3561	491.214
24	5011.9	3809.42	219.86	3815.76	3.30315	493.32
25	3981.1	3836.27	220.528	3842.6	3.29003	495.446
26	3162.3	3864.76	223.287	3871.2	3.30659	497.567
27	2511.9	3892.47	227.239	3899.1	3.34109	499.808
28	1995.3	3923.17	233.042	3930.09	3.39946	501.899
29	1584.9	3953.12	239.959	3960.4	3.47366	503.91
30	1258.9	3986.28	248.209	3994	3.56297	506.091
31	1000	4018.06	257.922	4026.33	3.67281	508.187
32	794.33	4053.13	268.784	4062.03	3.79402	510.478
33	630.96	4089.86	281.442	4099.53	3.93658	512.589
34	501.19	4128.1	295.889	4138.69	4.09976	514.66
35	398.11	4169.29	312.134	4180.96	4.28147	516.741
36	316.23	4213.07	329.826	4225.96	4.47635	518.857
37	251.19	4257.89	350.154	4272.26	4.70123	520.958
38	199.53	4306.47	373.022	4322.6	4.95053	523.119
39	158.49	4356.52	397.567	4374.63	5.21425	525.295
40	125.89	4412.39	425.197	4432.83	5.50428	527.481
41	100	4472.43	455.033	4495.51	5.80939	529.677
42	79.433	4536.71	486.989	4562.77	6.1269	531.858
43	63.096	4605.12	521.433	4634.55	6.46003	534.104
44	50.119	4677.62	556.029	4710.55	6.77895	536.205
45	39.811	4760.15	594.442	4797.13	7.11818	546.102
46	31.623	4848.05	634.711	4889.43	7.45879	548.548
47	25.119	4938.05	674.485	4983.9	7.77786	551.019
48	19.953	5034.21	718.269	5085.19	8.12001	553.69
49	15.849	5134.39	760.644	5190.43	8.42689	556.441
50	12.589	5240.09	810.403	5302.39	8.79139	559.202
51	10	5353.36	861.552	5422.24	9.1426	562.318
52	7.9433	5470.56	915.449	5546.62	9.49992	565.554
53	6.3096	5594.33	973.912	5678.47	9.87559	568.795
54	5.0119	5715.66	1044.3	5810.28	10.3543	571.901
55	3.9811	5843.45	1123.25	5950.43	10.8809	575.122
56	3.1623	5980.35	1205.8	6100.7	11.3996	579.453
57	2.5119	6130.25	1327.78	6272.4	12.2211	583.144
58	1.9953	6269.56	1457.83	6436.82	13.0901	586.815
59	1.5849	6451.3	1601.94	6647.22	13.9452	590.511
60	1.2589	6605.08	1783.75	6841.7	15.1126	594.217
61	1	6818.75	1975.48	7099.15	16.157	600.965
62	0.79433	7040.45	2214.65	7380.56	17.4615	605.066
63	0.63096	7287.87	2497.45	7703.91	18.9158	609.402
64	0.50119	7559.48	2819.89	8068.3	20.4569	614.133
65	0.39811	7868.18	3206.15	8496.33	22.17	619.239
66	0.31623	8196.56	3650.79	8972.85	24.0084	624.925
67	0.25119	8595.01	4161.91	9549.64	25.8374	631.336
68	0.19953	9120.07	4736.6	10276.7	27.4455	638.297
69	0.15849	9663.43	5424.52	11081.8	29.3075	646.228
70	0.12589	10295	6154.84	11994.5	30.8731	655.39
71	0.1	10922.9	6971.8	12958.2	32.549	666.221