File: data/20200619/Z_p44_2.txt
Index	Frequency (Hz)	Z' (Ω)	-Z'' (Ω)	Z (Ω)	-Phase (°)	Time (s)
1	1000000	2784.99	2035.62	3449.63	36.164	233.41
2	794330	3090.54	1877.75	3616.27	31.2819	234.805
3	630960	3448.77	1771.17	3876.99	27.1835	236.195
4	501190	3790.31	1679.34	4145.68	23.8963	237.71
5	398110	4125.37	1554.37	4408.48	20.6456	242.745
6	316230	4399.36	1441.9	4629.63	18.1467	244.055
7	251190	4556.43	1252.73	4725.5	15.3728	248.17
8	199530	4766.87	1144.3	4902.29	13.4985	249.465
9	158490	4945.53	1031.23	5051.9	11.7784	250.98
10	125890	5090.74	921.822	5173.53	10.2638	252.345
11	100000	5208.63	817.317	5272.37	8.9179	253.73
12	79433	5313.23	728.43	5362.93	7.80643	255.035
13	63096	5395.14	639.726	5432.94	6.76224	256.45
14	50119	5465.01	567.069	5494.35	5.92401	257.905
15	39811	5528.44	503.106	5551.28	5.19978	259.305
16	31623	5576.66	446.903	5594.53	4.58179	260.63
17	25119	5623.15	400.78	5637.41	4.07676	261.905
18	19953	5664.35	361.785	5675.89	3.65454	263.21
19	15849	5702.63	328.363	5712.08	3.29551	264.6
20	12589	5737.76	300.571	5745.63	2.99868	265.881
21	10000	5771.08	278.562	5777.8	2.76344	267.176
22	7943.3	5805.94	261.3	5811.81	2.5769	268.656
23	6309.6	5831.87	244.984	5837.02	2.40545	269.956
24	5011.9	5860.81	233.017	5865.44	2.27679	271.296
25	3981.1	5887.85	223.05	5892.07	2.16951	272.596
26	3162.3	5912.76	215.015	5916.67	2.08262	273.861
27	2511.9	5940.15	208.273	5943.8	2.00807	275.171
28	1995.3	5969.77	204.833	5973.28	1.96515	276.516
29	1584.9	5990.96	200.433	5994.32	1.91617	277.751
30	1258.9	6020.19	196.795	6023.4	1.87229	278.981
31	1000	6045.69	195.276	6048.85	1.85001	280.351
32	794.33	6073.54	193.863	6076.63	1.82822	281.871
33	630.96	6099.66	193.37	6102.73	1.81577	283.141
34	501.19	6124.99	193.28	6128.04	1.80742	284.446
35	398.11	6152.74	193.944	6155.79	1.80546	285.831
36	316.23	6178.93	196.184	6182.04	1.81856	287.181
37	251.19	6204.46	200.106	6207.68	1.84726	288.501
38	199.53	6233.54	206.436	6236.96	1.89677	289.796
39	158.49	6257.64	212.655	6261.25	1.94635	291.171
40	125.89	6290.78	221.854	6294.69	2.01978	292.636
41	100	6315.89	233.188	6320.19	2.11444	293.981
42	79.433	6345.39	245.514	6350.14	2.21576	295.406
43	63.096	6376.6	261.939	6381.97	2.35228	296.796
44	50.119	6430.26	268.384	6435.86	2.39	298.161
45	39.811	6443.62	298.844	6450.54	2.65538	307.281
46	31.623	6483.39	321.511	6491.36	2.83897	308.916
47	25.119	6526.66	351.877	6536.14	3.08605	310.666
48	19.953	6567.99	385.422	6579.28	3.35838	312.651
49	15.849	6621.45	421.139	6634.83	3.63924	314.556
50	12.589	6671.26	462.75	6687.29	3.96795	316.526
51	10	6730.94	508.241	6750.1	4.31811	318.911
52	7.9433	6786.21	559.757	6809.25	4.71534	321.182
53	6.3096	6857.52	622.722	6885.74	5.18872	323.662
54	5.0119	6936.98	685.799	6970.8	5.64598	326.037
55	3.9811	7003.95	760.767	7045.14	6.19915	328.402
56	3.1623	7096.86	852.01	7147.82	6.84586	330.947
57	2.5119	7189.82	958.171	7253.39	7.59095	333.507
58	1.9953	7298.06	1058.16	7374.37	8.24992	336.172
59	1.5849	7402.88	1183.66	7496.91	9.08424	338.967
60	1.2589	7558.28	1351.84	7678.22	10.1405	341.932
61	1	7683.78	1547.13	7837.99	11.3843	346.902
62	0.79433	7853.53	1759.18	8048.15	12.6257	350.037
63	0.63096	8044.17	2007.22	8290.81	14.0106	353.672
64	0.50119	8227.25	2283.82	8538.36	15.5142	357.442
65	0.39811	8464.63	2623.69	8861.93	17.2213	361.652
66	0.31623	8703.25	3032.7	9216.5	19.2112	366.432
67	0.25119	9046.91	3500.51	9700.52	21.1529	371.932
68	0.19953	9395.96	4069.35	10239.3	23.4172	378.238
69	0.15849	9788.11	4666.67	10843.7	25.4904	385.493
70	0.12589	10146.9	5382.19	11486	27.9427	394.033
71	0.1	10714.3	6361.82	12460.7	30.7005	404.253