File: data/20200619/Z_p43_1.txt
Index	Frequency (Hz)	Z' (Ω)	-Z'' (Ω)	Z (Ω)	-Phase (°)	Time (s)
1	1000000	2750.96	2005.98	3404.66	36.0992	141.866
2	794330	3029.5	1855.38	3552.51	31.4849	143.376
3	630960	3378.68	1766.73	3812.72	27.6054	144.846
4	501190	3708.11	1689.71	4074.94	24.4978	146.306
5	398110	4051.74	1565.49	4343.65	21.1253	151.292
6	316230	4330.18	1463	4570.65	18.6681	152.562
7	251190	4497.18	1291.02	4678.82	16.0173	156.592
8	199530	4718.96	1191.5	4867.06	14.1705	157.872
9	158490	4906.37	1088.29	5025.62	12.5064	159.232
10	125890	5065.08	982.643	5159.52	10.9792	160.587
11	100000	5194.74	882.87	5269.23	9.64552	162.002
12	79433	5311.59	791.827	5370.29	8.47894	163.297
13	63096	5406.39	709.9	5452.8	7.48058	164.737
14	50119	5488.91	635.428	5525.57	6.6035	166.212
15	39811	5565.61	569.067	5594.63	5.83804	167.672
16	31623	5625.34	510.211	5648.43	5.18247	169.002
17	25119	5678.12	461.763	5696.87	4.64924	170.282
18	19953	5729.3	420.807	5744.74	4.20073	171.597
19	15849	5778.08	385.076	5790.9	3.8128	172.927
20	12589	5818.68	353.513	5829.4	3.47673	174.197
21	10000	5854.28	327.132	5863.41	3.19831	175.477
22	7943.3	5897.06	305.844	5904.99	2.96892	176.847
23	6309.6	5934.55	287.241	5941.5	2.77104	178.247
24	5011.9	5964.78	272.935	5971.02	2.6199	179.517
25	3981.1	5997.88	260.41	6003.53	2.48605	180.892
26	3162.3	6028.59	250.867	6033.81	2.38286	182.277
27	2511.9	6060.01	243.769	6064.91	2.30353	183.532
28	1995.3	6088.65	238.146	6093.3	2.23988	184.792
29	1584.9	6119	234.243	6123.48	2.19229	186.092
30	1258.9	6151.87	231.434	6156.22	2.15446	187.427
31	1000	6181.66	230.356	6185.95	2.13411	188.692
32	794.33	6207.36	230.288	6211.63	2.12465	190.067
33	630.96	6239.15	231.498	6243.44	2.12494	191.357
34	501.19	6267.67	232.973	6272	2.12874	192.677
35	398.11	6299.9	238.053	6304.4	2.164	193.917
36	316.23	6332.16	244.388	6336.88	2.21022	195.217
37	251.19	6365.12	252.724	6370.14	2.27371	196.612
38	199.53	6400.53	262.85	6405.92	2.35164	197.957
39	158.49	6434.3	274.492	6440.16	2.4428	199.262
40	125.89	6467.7	291.621	6474.27	2.58165	200.602
41	100	6501.91	310.743	6509.33	2.73623	201.953
42	79.433	6540.31	333.121	6548.78	2.91576	203.403
43	63.096	6580.68	358.141	6590.42	3.11514	204.963
44	50.119	6648.37	394.101	6660.04	3.3924	206.403
45	39.811	6670.83	425.596	6684.39	3.6505	215.588
46	31.623	6724.78	466.363	6740.93	3.96711	217.238
47	25.119	6779.85	513.923	6799.3	4.33482	218.803
48	19.953	6844.89	570.582	6868.63	4.76509	220.703
49	15.849	6912.84	629.683	6941.46	5.20465	222.703
50	12.589	6985.72	699.473	7020.66	5.71791	224.688
51	10	7068.19	776.864	7110.75	6.2722	227.048
52	7.9433	7160.93	871.03	7213.71	6.93519	229.298
53	6.3096	7247.63	970.958	7312.38	7.63043	231.678
54	5.0119	7352.97	1093.32	7433.81	8.4574	234.088
55	3.9811	7465.4	1230.25	7566.09	9.35789	236.558
56	3.1623	7591.82	1394.88	7718.9	10.4111	239.078
57	2.5119	7713.02	1594.04	7876.01	11.6769	241.738
58	1.9953	7896.33	1806.56	8100.35	12.8866	244.483
59	1.5849	8016.31	2094.58	8285.44	14.6434	247.233
60	1.2589	8181.93	2418.95	8532.02	16.4701	250.093
61	1	8396.42	2806.42	8853.01	18.4817	255.088
62	0.79433	8627.53	3269.98	9226.43	20.7576	258.279
63	0.63096	8867.51	3851.94	9668	23.4795	261.749
64	0.50119	9131.84	4520.22	10189.4	26.3352	265.494
65	0.39811	9456.6	5378.99	10879.4	29.6316	269.749
66	0.31623	9807.07	6389.13	11704.7	33.0835	274.574
67	0.25119	10284.8	7686.75	12839.9	36.7741	279.989
68	0.19953	10804.9	9210.96	14198.1	40.447	286.264
69	0.15849	11470.3	11004.7	15895.7	43.8132	293.599
70	0.12589	12226	13058.1	17888.3	46.885	302.054
71	0.1	13052	15787.9	20484.5	50.4192	312.505