File: data/20200619/Z_p46_2.txt
Index	Frequency (Hz)	Z' (Ω)	-Z'' (Ω)	Z (Ω)	-Phase (°)	Time (s)
1	1000000	2926.69	2041.77	3568.52	34.901	401.344
2	794330	3229.98	1850.84	3722.69	29.8136	402.829
3	630960	3569.12	1729.36	3966.02	25.8518	404.274
4	501190	3901.16	1616.87	4222.95	22.512	405.834
5	398110	4227.25	1464.05	4473.6	19.1028	411.254
6	316230	4481.71	1323.62	4673.08	16.4539	412.604
7	251190	4613.55	1142.26	4752.85	13.9061	416.579
8	199530	4805.37	1027.82	4914.06	12.073	417.934
9	158490	4959.93	912.153	5043.11	10.4205	419.309
10	125890	5085.35	804.44	5148.58	8.989	420.559
11	100000	5178.42	702.499	5225.85	7.72553	421.994
12	79433	5261.18	611	5296.54	6.62429	423.344
13	63096	5324.93	535.482	5351.78	5.74244	424.739
14	50119	5383.1	466.634	5403.29	4.95431	426.114
15	39811	5428.69	407.281	5443.95	4.29051	427.375
16	31623	5462.59	356.072	5474.18	3.72948	428.725
17	25119	5498.05	317.388	5507.2	3.30387	430.025
18	19953	5524.46	285.306	5531.82	2.95637	431.29
19	15849	5555.1	257.448	5561.07	2.65344	432.575
20	12589	5580.39	235.374	5585.35	2.41523	433.92
21	10000	5603.65	216.498	5607.83	2.21253	435.31
22	7943.3	5628.18	202.589	5631.82	2.0615	436.58
23	6309.6	5649.67	190.046	5652.86	1.92662	437.85
24	5011.9	5671.38	180.546	5674.25	1.82337	439.23
25	3981.1	5692.7	173.443	5695.34	1.74512	440.575
26	3162.3	5713.27	167.076	5715.71	1.67505	441.845
27	2511.9	5734.53	162.976	5736.84	1.62792	443.155
28	1995.3	5756.87	158.496	5759.06	1.57705	444.57
29	1584.9	5775.63	155.626	5777.73	1.54348	445.825
30	1258.9	5797.04	153.047	5799.06	1.51231	447.075
31	1000	5814.05	150.548	5816	1.48328	448.415
32	794.33	5836.35	148.431	5838.24	1.45684	449.885
33	630.96	5857.41	147.169	5859.26	1.43927	451.205
34	501.19	5877.91	145.969	5879.73	1.42256	452.5
35	398.11	5900.95	145.129	5902.73	1.40886	453.745
36	316.23	5918.77	145.448	5920.56	1.4077	455.08
37	251.19	5938.67	145.602	5940.46	1.40447	456.505
38	199.53	5960.37	147.118	5962.18	1.41392	457.865
39	158.49	5980.62	149.983	5982.5	1.43657	459.21
40	125.89	6003.24	152.959	6005.19	1.45955	460.55
41	100	6021.02	158.239	6023.1	1.50545	461.905
42	79.433	6045.01	163.533	6047.23	1.54962	463.34
43	63.096	6064.86	169.955	6067.24	1.60518	464.815
44	50.119	6092.74	169.819	6095.1	1.59656	466.25
45	39.811	6109.46	188.277	6112.36	1.76514	475.325
46	31.623	6133.23	197.904	6136.42	1.84815	476.925
47	25.119	6160.01	209.006	6163.56	1.94327	478.57
48	19.953	6186.29	227.832	6190.48	2.10916	480.445
49	15.849	6216.74	241.977	6221.44	2.22903	482.401
50	12.589	6242.97	263.536	6248.53	2.4172	484.431
51	10	6276.14	281.66	6282.46	2.56959	486.741
52	7.9433	6310.05	309.14	6317.62	2.80478	489.056
53	6.3096	6343.32	335.928	6352.21	3.03142	491.441
54	5.0119	6373.99	374.339	6384.97	3.36107	493.796
55	3.9811	6417.22	418.016	6430.82	3.72697	496.146
56	3.1623	6448.99	461.491	6465.48	4.09312	498.716
57	2.5119	6497.37	538.353	6519.64	4.73654	501.291
58	1.9953	6565.54	619.572	6594.71	5.39088	503.991
59	1.5849	6598	727.701	6638	6.29379	506.756
60	1.2589	6665.14	796.168	6712.52	6.81185	509.711
61	1	6706.67	943.821	6772.76	8.01055	514.756
62	0.79433	6790.26	1106.18	6879.77	9.25261	517.976
63	0.63096	6846.14	1292.82	6967.14	10.6937	521.541
64	0.50119	6923.23	1543.74	7093.25	12.5701	525.451
65	0.39811	7004.49	1844.94	7243.39	14.7562	529.601
66	0.31623	7140.84	2213.23	7475.96	17.2203	534.326
67	0.25119	7226.6	2645.49	7695.6	20.1065	539.797
68	0.19953	7369.03	3166.75	8020.65	23.2551	545.957
69	0.15849	7528.03	3847.56	8454.28	27.0715	553.307
70	0.12589	7799.76	4675.79	9093.91	30.9418	561.857
71	0.1	7986.72	5536.2	9717.88	34.7287	572.067