File: data/20200619/Z_p48_3.txt
Index	Frequency (Hz)	Z' (Ω)	-Z'' (Ω)	Z (Ω)	-Phase (°)	Time (s)
1	1000000	1859.74	1180.6	2202.83	32.4084	718.389
2	794330	2024.77	1109.07	2308.62	28.7119	720.985
3	630960	2220.08	1062.86	2461.38	25.5826	723.696
4	501190	2411.75	1005.99	2613.15	22.642	726.552
5	398110	2590.76	923.241	2750.35	19.614	738.006
6	316230	2748.52	849.869	2876.92	17.1821	741.342
7	251190	2842.09	740.472	2936.97	14.6031	750.856
8	199530	2971.96	676.834	3048.05	12.8297	753.592
9	158490	3078.8	608.076	3138.27	11.1724	756.428
10	125890	3161.69	540.821	3207.61	9.70675	760.184
11	100000	3233.42	478.404	3268.62	8.41618	762.891
12	79433	3290.15	421.847	3317.09	7.30631	765.757
13	63096	3339.99	370.842	3360.52	6.33565	768.733
14	50119	3378.19	325.995	3393.88	5.51198	771.844
15	39811	3412.94	286.598	3424.96	4.80009	775.07
16	31623	3441.21	253.642	3450.54	4.21549	778.216
17	25119	3465.05	226.604	3472.45	3.74166	781.457
18	19953	3488.71	204.347	3494.68	3.3522	784.513
19	15849	3507.79	185.728	3512.7	3.03082	787.914
20	12589	3529.48	170.211	3533.58	2.76098	790.935
21	10000	3544.56	157.537	3548.06	2.54482	794.226
22	7943.3	3562.9	147.713	3565.96	2.37405	797.327
23	6309.6	3578.92	139.445	3581.63	2.23128	800.418
24	5011.9	3595.04	134.195	3597.54	2.13774	803.629
25	3981.1	3609.67	130.009	3612.01	2.06272	806.855
26	3162.3	3624.33	126.954	3626.55	2.00615	809.761
27	2511.9	3637.79	125.12	3639.94	1.96988	812.847
28	1995.3	3655.98	124.316	3658.09	1.94751	815.614
29	1584.9	3670.84	124.515	3672.95	1.94272	818.365
30	1258.9	3686.43	125.567	3688.57	1.95086	821.376
31	1000	3702.6	127.668	3704.8	1.97481	824.287
32	794.33	3720.04	130.13	3722.31	2.00343	827.568
33	630.96	3736.68	133.896	3739.07	2.0522	830.634
34	501.19	3754.09	138.574	3756.65	2.11399	834.065
35	398.11	3773.22	144.241	3775.98	2.18921	837.816
36	316.23	3792.2	151.697	3795.23	2.29075	840.222
37	251.19	3809.67	160.419	3813.04	2.41121	842.763
38	199.53	3830.94	171.13	3834.76	2.55774	845.009
39	158.49	3852.37	183.729	3856.75	2.73052	847.205
40	125.89	3874.75	198.736	3879.84	2.93612	849.486
41	100	3898.43	216.802	3904.46	3.18309	851.817
42	79.433	3924.96	236.891	3932.1	3.4539	854.193
43	63.096	3951.9	260.962	3960.51	3.77801	856.574
44	50.119	3991.1	290.153	4001.63	4.15809	858.92
45	39.811	4019.38	320.049	4032.1	4.55265	868.896
46	31.623	4058.13	356.059	4073.72	5.01427	871.473
47	25.119	4105.9	396.39	4124.99	5.51434	873.944
48	19.953	4154.92	441.646	4178.33	6.06746	876.71
49	15.849	4210.91	493.542	4239.74	6.68489	879.461
50	12.589	4273.99	545.216	4308.63	7.26973	882.387
51	10	4345.25	604.346	4387.08	7.91802	885.653
52	7.9433	4425.8	669.338	4476.13	8.59997	888.899
53	6.3096	4510.84	738.94	4570.97	9.30323	892.25
54	5.0119	4602.62	815.23	4674.26	10.0442	895.701
55	3.9811	4701.53	900.695	4787.03	10.845	899.132
56	3.1623	4811.7	999.904	4914.5	11.7394	902.613
57	2.5119	4926.74	1110.94	5050.44	12.7072	906.119
58	1.9953	5052.91	1233.86	5201.38	13.7224	909.745
59	1.5849	5178.99	1388.72	5361.94	15.0105	913.531
60	1.2589	5304.86	1571.85	5532.84	16.5048	917.442
61	1	5446.64	1765.16	5725.52	17.9566	924.63
62	0.79433	5611.57	2017.63	5963.27	19.776	928.836
63	0.63096	5778.56	2307.22	6222.13	21.7655	933.387
64	0.50119	5955.85	2664.33	6524.63	24.1012	938.258
65	0.39811	6162.84	3107.92	6902.16	26.7618	943.394
66	0.31623	6415.82	3668.51	7390.59	29.7605	949.02
67	0.25119	6662.9	4310	7935.38	32.8975	956.026
68	0.19953	7014.05	5088.14	8665.22	35.9579	963.212
69	0.15849	7346.5	6082.67	9537.82	39.6237	971.428
70	0.12589	7751.76	7227.45	10598.4	42.9953	980.93
71	0.1	8272.22	8561.35	11904.9	45.984	992.056