File: data/20200619/Z_p46_1.txt
Index	Frequency (Hz)	Z' (Ω)	-Z'' (Ω)	Z (Ω)	-Phase (°)	Time (s)
1	1000000	2922.5	2025.01	3555.51	34.7182	85.9874
2	794330	3226.96	1846.3	3717.81	29.776	87.2924
3	630960	3564.79	1726.38	3960.82	25.8402	88.6524
4	501190	3901.76	1620.9	4225.05	22.5594	90.1174
5	398110	4228.71	1460.77	4473.9	19.057	95.1125
6	316230	4477.27	1334.16	4671.82	16.5933	96.4626
7	251190	4617.43	1142.7	4756.73	13.9	100.518
8	199530	4805.28	1030.76	4914.59	12.1069	101.798
9	158490	4961.17	913.458	5044.56	10.4325	103.248
10	125890	5083.87	804.455	5147.13	8.99173	104.583
11	100000	5183.21	702.613	5230.62	7.71971	105.998
12	79433	5264.85	614.156	5300.55	6.65361	107.273
13	63096	5329.76	534.599	5356.5	5.72786	108.653
14	50119	5385.45	467.527	5405.71	4.96157	110.028
15	39811	5430.57	406.74	5445.79	4.28335	111.418
16	31623	5466.77	357.914	5478.47	3.74585	112.748
17	25119	5500.79	318.04	5509.98	3.30899	114.038
18	19953	5528.89	284.801	5536.22	2.94878	115.303
19	15849	5556.59	257.541	5562.55	2.65369	116.608
20	12589	5583.49	235.369	5588.45	2.41385	117.958
21	10000	5607.23	216.912	5611.42	2.21535	119.238
22	7943.3	5628.63	202.124	5632.26	2.0566	120.513
23	6309.6	5655.01	190.54	5658.21	1.92979	121.873
24	5011.9	5676.3	181.498	5679.2	1.83139	123.333
25	3981.1	5694.67	174.228	5697.33	1.75242	124.593
26	3162.3	5715.07	167.365	5717.52	1.67742	125.868
27	2511.9	5735.86	162.967	5738.17	1.62745	127.218
28	1995.3	5761.23	158.438	5763.41	1.57528	128.543
29	1584.9	5778.53	155.678	5780.62	1.54322	129.783
30	1258.9	5798.56	152.696	5800.57	1.50845	131.028
31	1000	5819.06	150.355	5821	1.4801	132.393
32	794.33	5840.52	148.952	5842.42	1.46091	133.823
33	630.96	5860.86	146.675	5862.7	1.43359	135.088
34	501.19	5880.48	145.892	5882.29	1.42119	136.393
35	398.11	5901.79	145.161	5903.57	1.40897	137.708
36	316.23	5921.97	144.43	5923.73	1.3971	139.063
37	251.19	5945.58	146.348	5947.38	1.41003	140.358
38	199.53	5964.28	147.102	5966.09	1.41285	141.628
39	158.49	5982.82	149.986	5984.7	1.43607	143.063
40	125.89	6005.54	153.565	6007.5	1.46477	144.458
41	100	6023.38	158.528	6025.47	1.50761	145.833
42	79.433	6043.07	163.809	6045.29	1.55273	147.269
43	63.096	6066.04	169.732	6068.42	1.60276	148.789
44	50.119	6073.38	184.475	6076.18	1.73979	150.289
45	39.811	6112.15	188.12	6115.04	1.76289	159.419
46	31.623	6136.84	197.365	6140.01	1.84204	161.099
47	25.119	6159.19	209.788	6162.77	1.95079	162.694
48	19.953	6188.99	228.669	6193.22	2.11598	164.609
49	15.849	6216.23	243.719	6221	2.24524	166.619
50	12.589	6247.7	260.119	6253.11	2.3841	168.689
51	10	6277.23	282.313	6283.58	2.57509	170.939
52	7.9433	6310.24	308.628	6317.79	2.80005	173.274
53	6.3096	6342.5	340.727	6351.65	3.07504	175.669
54	5.0119	6377.58	374.017	6388.54	3.3563	178.094
55	3.9811	6411.72	416.878	6425.25	3.72003	180.589
56	3.1623	6458.83	473.784	6476.18	4.19539	183.174
57	2.5119	6504.08	531.64	6525.77	4.67294	185.749
58	1.9953	6537.9	614.049	6566.68	5.36556	188.459
59	1.5849	6599.16	694.842	6635.64	6.01067	191.304
60	1.2589	6650.24	819.164	6700.5	7.02221	194.099
61	1	6709.31	946.79	6775.78	8.03231	199.079
62	0.79433	6783.15	1111.14	6873.55	9.30296	202.155
63	0.63096	6848.63	1293.47	6969.7	10.6952	205.615
64	0.50119	6926.71	1545.77	7097.09	12.58	209.475
65	0.39811	7006.9	1848.89	7246.73	14.7816	213.625
66	0.31623	7145.59	2209.54	7479.41	17.1825	218.305
67	0.25119	7236.12	2668.2	7712.37	20.2406	223.69
68	0.19953	7367.28	3195.58	8030.47	23.4489	229.875
69	0.15849	7549.89	3883.46	8490.12	27.2201	237.15
70	0.12589	7823.66	4649.59	9101.01	30.723	245.71
71	0.1	7938.96	5574.3	9700.51	35.0744	255.936