File: data/20200619/Z_p40_2.txt
Index	Frequency (Hz)	Z' (Ω)	-Z'' (Ω)	Z (Ω)	-Phase (°)	Time (s)
1	1000000	2408.18	1617.79	2901.13	33.8928	460.312
2	794330	2635.31	1494.12	3029.39	29.5516	461.767
3	630960	2912.19	1404.98	3233.39	25.7549	463.147
4	501190	3183.43	1309.99	3442.43	22.3673	464.632
5	398110	3431.19	1194.63	3633.21	19.1964	469.767
6	316230	3637.8	1093.23	3798.52	16.7266	471.172
7	251190	3744.66	942.827	3861.53	14.1321	475.762
8	199530	3903.86	853.784	3996.14	12.3365	477.167
9	158490	4036.26	759.716	4107.14	10.6596	478.432
10	125890	4136.78	670.446	4190.76	9.20585	479.772
11	100000	4220.64	588.579	4261.48	7.93884	481.228
12	79433	4290.22	515.138	4321.04	6.84688	482.713
13	63096	4344.93	450.184	4368.19	5.91538	484.183
14	50119	4394.11	394.543	4411.79	5.13078	485.638
15	39811	4432.92	344.784	4446.3	4.4474	487.028
16	31623	4463.6	302.823	4473.86	3.88116	488.423
17	25119	4492.77	271.28	4500.96	3.4554	489.753
18	19953	4518.95	243.428	4525.5	3.08344	491.083
19	15849	4542.57	221.382	4547.96	2.7901	492.443
20	12589	4563.6	203.398	4568.13	2.55197	493.808
21	10000	4583.45	187.735	4587.3	2.34549	495.173
22	7943.3	4607.67	176.148	4611.03	2.18932	496.533
23	6309.6	4626.72	166.743	4629.72	2.064	497.928
24	5011.9	4643.44	159.2	4646.17	1.96361	499.373
25	3981.1	4664.71	154.102	4667.25	1.89212	500.793
26	3162.3	4682.33	149.592	4684.72	1.82988	502.118
27	2511.9	4699.59	146.521	4701.87	1.78576	503.468
28	1995.3	4719.3	144.57	4721.52	1.75463	504.798
29	1584.9	4736.76	143.447	4738.93	1.7346	506.078
30	1258.9	4757.58	142.192	4759.71	1.71192	507.478
31	1000	4776.09	142.257	4778.21	1.70606	508.998
32	794.33	4794.12	142.302	4796.24	1.70019	510.563
33	630.96	4812.45	143.12	4814.57	1.70345	512.023
34	501.19	4831.57	144.901	4833.74	1.71781	513.493
35	398.11	4851.76	147.808	4854.01	1.74497	514.933
36	316.23	4871.32	150.829	4873.65	1.77346	516.288
37	251.19	4893.43	156.529	4895.93	1.83213	517.743
38	199.53	4910.36	162.947	4913.07	1.90063	518.958
39	158.49	4931.36	171.642	4934.34	1.99345	520.288
40	125.89	4953	182.96	4956.38	2.1155	521.838
41	100	4974.1	195.353	4977.94	2.24908	523.328
42	79.433	4998.56	211.133	5003.02	2.41867	524.888
43	63.096	5021.4	229.179	5026.63	2.61319	526.483
44	50.119	5041.05	238.485	5046.69	2.70857	528.118
45	39.811	5081.85	276.816	5089.39	3.1179	537.319
46	31.623	5115.52	307.677	5124.77	3.44196	539.034
47	25.119	5150.18	339.517	5161.36	3.77167	540.649
48	19.953	5196.34	378.957	5210.14	4.17106	542.554
49	15.849	5245.85	421.645	5262.76	4.59537	544.544
50	12.589	5300.45	466.23	5320.92	5.02682	546.619
51	10	5355.5	513.839	5380.09	5.48054	548.964
52	7.9433	5425.49	570.26	5455.37	6.00019	551.274
53	6.3096	5491.6	627.553	5527.34	6.5192	553.779
54	5.0119	5564.26	695.484	5607.55	7.12453	556.244
55	3.9811	5648.28	770.784	5700.63	7.77078	558.639
56	3.1623	5725.7	856.688	5789.44	8.50956	561.399
57	2.5119	5816.55	962.872	5895.7	9.39951	563.994
58	1.9953	5916.46	1095.01	6016.94	10.4855	566.594
59	1.5849	6031.31	1217.95	6153.06	11.4167	569.404
60	1.2589	6129.25	1395.01	6285.99	12.822	572.359
61	1	6237.71	1613.2	6442.93	14.5001	577.469
62	0.79433	6371.88	1858.95	6637.51	16.2642	580.649
63	0.63096	6522.13	2159.57	6870.36	18.3205	584.204
64	0.50119	6655.96	2515.53	7115.45	20.7034	588.109
65	0.39811	6825.79	2972.99	7445.14	23.5356	592.36
66	0.31623	6985.37	3524.44	7824.13	26.773	597.185
67	0.25119	7233.02	4248.64	8388.54	30.4298	602.635
68	0.19953	7456.79	5094.36	9030.85	34.3402	608.875
69	0.15849	7759	6098.4	9868.77	38.1666	616.155
70	0.12589	8052.6	7254.29	10838.3	42.0145	624.725
71	0.1	8336.16	8901.22	12195.2	46.8775	634.9