File: data/20200619/Z_p41_3.txt
Index	Frequency (Hz)	Z' (Ω)	-Z'' (Ω)	Z (Ω)	-Phase (°)	Time (s)
1	1000000	2427.79	1617.84	2917.46	33.6788	770.962
2	794330	2653.41	1473.37	3035.03	29.0423	773.042
3	630960	2914.21	1385.54	3226.82	25.4285	775.087
4	501190	3173.8	1286.79	3424.74	22.0697	777.332
5	398110	3418.38	1169.91	3613.03	18.8931	785.652
6	316230	3621.89	1064.93	3775.21	16.3848	787.607
7	251190	3729.63	916.438	3840.57	13.8051	794.257
8	199530	3884.54	826.187	3971.43	12.0071	796.257
9	158490	4010.15	733.889	4076.75	10.3708	798.267
10	125890	4109	644.88	4159.3	8.91943	800.192
11	100000	4188.51	563.821	4226.29	7.66658	802.317
12	79433	4253.78	493.5	4282.31	6.61755	804.232
13	63096	4304.07	429.406	4325.44	5.6974	806.262
14	50119	4347.36	374.544	4363.47	4.92412	808.422
15	39811	4386.54	327.918	4398.78	4.27523	810.517
16	31623	4413.02	286.678	4422.32	3.71682	812.622
17	25119	4441.83	256.476	4449.22	3.30466	814.577
18	19953	4464.6	230.364	4470.54	2.95372	816.552
19	15849	4487.94	209.035	4492.81	2.66674	818.497
20	12589	4507.75	192.409	4511.85	2.44414	820.423
21	10000	4525.69	177.714	4529.18	2.24872	822.548
22	7943.3	4547.6	167.744	4550.69	2.11246	824.488
23	6309.6	4565.59	158.873	4568.36	1.99296	826.498
24	5011.9	4582.65	152.807	4585.2	1.90981	828.443
25	3981.1	4603.5	148.613	4605.9	1.84902	830.393
26	3162.3	4619.62	144.6	4621.88	1.79284	832.293
27	2511.9	4637.96	143.049	4640.17	1.76662	834.393
28	1995.3	4656.51	140.938	4658.65	1.73363	836.373
29	1584.9	4673.21	140.283	4675.31	1.71942	838.263
30	1258.9	4692.59	140.779	4694.7	1.71837	840.338
31	1000	4709.84	141.334	4711.96	1.71883	842.263
32	794.33	4728.47	142.789	4730.62	1.72968	844.533
33	630.96	4751.14	144.447	4753.33	1.7414	846.553
34	501.19	4770.83	147.64	4773.12	1.77253	848.478
35	398.11	4788.47	151.263	4790.86	1.80931	850.543
36	316.23	4811.29	155.678	4813.81	1.85327	852.618
37	251.19	4830.6	161.44	4833.3	1.91413	854.668
38	199.53	4853.78	168.353	4856.7	1.98651	856.668
39	158.49	4876.29	177.464	4879.52	2.08425	858.643
40	125.89	4899.62	188.255	4903.23	2.20036	860.688
41	100	4922.46	199.705	4926.51	2.32323	862.793
42	79.433	4946.15	213.453	4950.76	2.47108	864.813
43	63.096	4974.07	229.848	4979.38	2.64572	866.953
44	50.119	5012.31	251.037	5018.59	2.86721	869.198
45	39.811	5036.05	269.665	5043.26	3.06509	878.989
46	31.623	5068.81	292.64	5077.25	3.30422	881.254
47	25.119	5105.45	320.231	5115.49	3.58908	883.454
48	19.953	5146.51	353.747	5158.65	3.93206	886.104
49	15.849	5192.68	387.928	5207.15	4.27245	888.704
50	12.589	5242.96	427.104	5260.32	4.65717	891.289
51	10	5298.31	469.079	5319.03	5.05942	894.194
52	7.9433	5355.67	514.488	5380.32	5.48723	897.124
53	6.3096	5421.92	567.056	5451.5	5.97062	900.089
54	5.0119	5486.14	624.969	5521.62	6.499	903.164
55	3.9811	5561.88	691.13	5604.66	7.08337	906.249
56	3.1623	5634.9	770.655	5687.36	7.78772	909.409
57	2.5119	5724.71	858.516	5788.73	8.5289	912.639
58	1.9953	5807.02	956.537	5885.27	9.35382	916.094
59	1.5849	5905.9	1062.03	6000.63	10.1942	919.524
60	1.2589	6001.69	1240.32	6128.51	11.6765	923.159
61	1	6102.19	1413.46	6263.76	13.0415	929.485
62	0.79433	6228.5	1619.71	6435.66	14.5768	933.34
63	0.63096	6351.16	1887.14	6625.6	16.5484	937.515
64	0.50119	6485.15	2185.23	6843.42	18.6217	942.085
65	0.39811	6610.35	2574.54	7094.01	21.2795	946.88
66	0.31623	6797.92	3038.89	7446.25	24.0862	952.3
67	0.25119	6954.85	3618.72	7839.97	27.4887	958.345
68	0.19953	7227.61	4352.53	8436.99	31.0567	965.29
69	0.15849	7442.29	5238.97	9101.35	35.1435	973.255
70	0.12589	7749.07	6287.82	9979.22	39.0569	982.471
71	0.1	8084.27	7481.33	11014.8	42.7817	993.426