File: data/20200619/Z_p41_2.txt
Index	Frequency (Hz)	Z' (Ω)	-Z'' (Ω)	Z (Ω)	-Phase (°)	Time (s)
1	1000000	2427.51	1595.78	2905.05	33.3199	455.332
2	794330	2653.59	1471.51	3034.29	29.01	456.742
3	630960	2918.34	1380.71	3228.48	25.3195	458.137
4	501190	3167.68	1294.75	3422.07	22.2317	459.597
5	398110	3418.17	1168.86	3612.5	18.8784	464.542
6	316230	3614.4	1062.82	3767.42	16.386	465.807
7	251190	3721.98	912.254	3832.14	13.7717	469.752
8	199530	3875.79	821.899	3961.98	11.9728	471.057
9	158490	4000.7	729.985	4066.76	10.3407	472.407
10	125890	4099.72	642.967	4149.83	8.9132	473.667
11	100000	4178.9	562.627	4216.6	7.66792	475.057
12	79433	4243.16	490.901	4271.46	6.59935	476.382
13	63096	4294.51	427.805	4315.76	5.68885	477.757
14	50119	4340.03	373.441	4356.07	4.91794	479.137
15	39811	4374.98	327.129	4387.19	4.2762	480.387
16	31623	4404.45	286.059	4413.73	3.71602	481.757
17	25119	4430.11	255.509	4437.47	3.30091	483.072
18	19953	4455.06	229.759	4460.98	2.95228	484.353
19	15849	4478.25	208.631	4483.1	2.66734	485.623
20	12589	4500.1	191.566	4504.18	2.43756	486.908
21	10000	4517.65	178.185	4521.16	2.25868	488.253
22	7943.3	4537.2	167.262	4540.28	2.11123	489.593
23	6309.6	4556.73	159.026	4559.51	1.99876	490.868
24	5011.9	4574.21	152.528	4576.75	1.90984	492.133
25	3981.1	4592.38	147.784	4594.76	1.84315	493.438
26	3162.3	4608.52	144.303	4610.78	1.79347	494.743
27	2511.9	4626.89	141.785	4629.06	1.7552	496.043
28	1995.3	4646.38	140.56	4648.5	1.73276	497.348
29	1584.9	4663.4	139.886	4665.5	1.71816	498.633
30	1258.9	4682.06	139.699	4684.14	1.70903	499.883
31	1000	4701.17	141.401	4703.29	1.72281	501.173
32	794.33	4721.22	141.849	4723.35	1.72093	502.593
33	630.96	4739.19	144.198	4741.39	1.74278	503.858
34	501.19	4760.1	147.144	4762.37	1.77057	505.133
35	398.11	4779.07	150.271	4781.43	1.80099	506.368
36	316.23	4800.04	155.13	4802.55	1.85107	507.698
37	251.19	4819.41	161.588	4822.12	1.92032	509.033
38	199.53	4844.04	168.085	4846.95	1.98733	510.303
39	158.49	4864.65	176.44	4867.85	2.0772	511.598
40	125.89	4887.12	187.332	4890.71	2.19518	512.968
41	100	4913.15	199.179	4917.18	2.3215	514.348
42	79.433	4937.57	212.558	4942.14	2.46501	515.713
43	63.096	4964.66	228.501	4969.91	2.6352	517.133
44	50.119	4985.55	235.97	4991.13	2.70983	518.548
45	39.811	5021.36	267.368	5028.47	3.04791	527.643
46	31.623	5058.7	292.398	5067.15	3.30807	529.263
47	25.119	5094.16	319.162	5104.15	3.58504	530.903
48	19.953	5136.72	351.099	5148.7	3.91014	532.808
49	15.849	5183.22	387.175	5197.66	4.27193	534.748
50	12.589	5226.95	424.328	5244.14	4.64115	536.698
51	10	5284.84	465.367	5305.29	5.03231	538.929
52	7.9433	5342.69	512.507	5367.21	5.47943	541.229
53	6.3096	5407.39	560.135	5436.33	5.914	543.584
54	5.0119	5473.65	621.453	5508.81	6.47736	546.099
55	3.9811	5545.82	687.731	5588.3	7.06909	548.519
56	3.1623	5621.42	756.449	5672.09	7.664	551.049
57	2.5119	5702.71	853.237	5766.19	8.50944	553.614
58	1.9953	5796.1	962.42	5875.46	9.42773	556.159
59	1.5849	5866.31	1074	5963.81	10.3747	558.929
60	1.2589	5975.45	1253.65	6105.55	11.8488	561.809
61	1	6084.62	1405.53	6244.85	13.007	566.854
62	0.79433	6202.08	1612.27	6408.22	14.5719	569.989
63	0.63096	6328.11	1874.91	6600.02	16.5037	573.524
64	0.50119	6453.34	2173.3	6809.46	18.612	577.269
65	0.39811	6602.23	2556.65	7079.97	21.1684	581.459
66	0.31623	6738.49	3041.26	7393	24.2909	586.224
67	0.25119	6969.06	3600.29	7844.1	27.3214	591.549
68	0.19953	7195.65	4310.6	8388.01	30.924	597.725
69	0.15849	7413.21	5133.48	9017.11	34.7017	604.915
70	0.12589	7612.29	6229.69	9836.47	39.296	613.44
71	0.1	8054.05	7535.16	11029.3	43.0936	623.59