File: data/20200619/Z_p44_3.txt
Index	Frequency (Hz)	Z' (Ω)	-Z'' (Ω)	Z (Ω)	-Phase (°)	Time (s)
1	1000000	2767.08	2034.68	3434.62	36.3278	454.83
2	794330	3096.79	1880.89	3623.24	31.2732	456.971
3	630960	3453.33	1776.86	3883.64	27.2274	459.167
4	501190	3796.82	1678.68	4151.37	23.8516	461.373
5	398110	4129.47	1564.17	4415.78	20.7458	470.038
6	316230	4401.27	1422.33	4625.39	17.909	472.189
7	251190	4561.01	1257.7	4731.24	15.4163	479.488
8	199530	4776.18	1147.63	4912.12	13.511	481.664
9	158490	4954.25	1032.73	5060.74	11.7749	483.79
10	125890	5095.6	924.585	5178.8	10.2843	485.791
11	100000	5217.18	820.786	5281.35	8.9407	488.037
12	79433	5317.26	726.388	5366.64	7.779	490.198
13	63096	5400.81	643.422	5439	6.79388	492.435
14	50119	5471.09	569.137	5500.61	5.9389	494.691
15	39811	5535.24	505.583	5558.28	5.21885	496.802
16	31623	5584.38	449.391	5602.44	4.60084	498.853
17	25119	5628.67	402.052	5643.01	4.08566	500.974
18	19953	5673.12	362.372	5684.68	3.65482	503.065
19	15849	5709.9	329.117	5719.38	3.29886	505.201
20	12589	5745.28	302.104	5753.22	3.01001	507.242
21	10000	5779.89	278.947	5786.62	2.76305	509.303
22	7943.3	5813	261.653	5818.88	2.57724	511.434
23	6309.6	5840.81	245.265	5845.95	2.40453	513.54
24	5011.9	5869.3	233.672	5873.95	2.27989	515.731
25	3981.1	5895.34	223.812	5899.59	2.17415	517.812
26	3162.3	5920.06	215.711	5923.99	2.08678	519.898
27	2511.9	5948.53	209.709	5952.23	2.01906	522.149
28	1995.3	5977.82	204.786	5981.33	1.96205	524.155
29	1584.9	6002.72	201	6006.09	1.91782	526.026
30	1258.9	6029.7	197.829	6032.94	1.87914	528.027
31	1000	6057.02	195.276	6060.17	1.84656	530.138
32	794.33	6078.86	194.197	6081.96	1.82977	532.339
33	630.96	6106.51	193.004	6109.56	1.81031	534.405
34	501.19	6134.23	193.864	6137.29	1.81015	536.436
35	398.11	6159.52	194.139	6162.58	1.80528	538.512
36	316.23	6186.45	196.499	6189.57	1.81927	540.628
37	251.19	6215.24	201.324	6218.5	1.85528	542.804
38	199.53	6240.47	205.581	6243.86	1.88683	544.805
39	158.49	6267.24	212.579	6270.84	1.94268	546.962
40	125.89	6295.84	222.52	6299.78	2.02422	549.153
41	100	6325.47	232.092	6329.73	2.10134	551.189
42	79.433	6352.32	244.909	6357.03	2.2079	553.275
43	63.096	6384.59	262.691	6390	2.35608	555.456
44	50.119	6399.08	279.049	6405.16	2.49696	557.702
45	39.811	6453.21	300.679	6460.21	2.66769	567.698
46	31.623	6490.3	324.82	6498.42	2.86509	570.124
47	25.119	6533.91	351.41	6543.35	3.07855	572.69
48	19.953	6573.4	382.872	6584.54	3.33346	575.256
49	15.849	6627.27	418.788	6640.48	3.61581	577.967
50	12.589	6672.24	461.158	6688.16	3.95376	580.773
51	10	6732.5	508.611	6751.68	4.32024	583.859
52	7.9433	6794.04	558.451	6816.95	4.69899	586.93
53	6.3096	6865.66	619.343	6893.53	5.15463	590.086
54	5.0119	6935.34	682.073	6968.8	5.61683	593.332
55	3.9811	7018.92	760.426	7060	6.18327	596.528
56	3.1623	7087.87	840.909	7137.58	6.76598	599.785
57	2.5119	7183.92	958.982	7247.64	7.60347	603.141
58	1.9953	7305.47	1055.57	7381.34	8.22182	606.647
59	1.5849	7404.29	1193.7	7499.9	9.15828	610.003
60	1.2589	7562.87	1356.98	7683.65	10.1721	613.644
61	1	7692.2	1543.76	7845.58	11.348	620.016
62	0.79433	7863.43	1751.41	8056.11	12.5565	623.897
63	0.63096	8036.91	2007.25	8283.78	14.023	628.058
64	0.50119	8250.16	2295.13	8563.46	15.5461	632.729
65	0.39811	8472.63	2620.8	8868.71	17.1882	637.565
66	0.31623	8740.5	3050.21	9257.44	19.2377	643.116
67	0.25119	9056.37	3505.64	9711.2	21.1609	649.302
68	0.19953	9343.61	4057.42	10186.5	23.4727	656.144
69	0.15849	9717.23	4663.31	10778.3	25.6364	664.08
70	0.12589	10130.1	5415.55	11486.9	28.1288	673.421
71	0.1	10705.9	6357.37	12451.2	30.7027	684.342