File: data/20200619/Z_p40_1.txt
Index	Frequency (Hz)	Z' (Ω)	-Z'' (Ω)	Z (Ω)	-Phase (°)	Time (s)
1	1000000	2409.2	1597.07	2890.48	33.5406	139.554
2	794330	2642.78	1491.16	3034.44	29.4334	140.899
3	630960	2917.67	1409.33	3240.21	25.782	142.329
4	501190	3185.4	1314.32	3445.9	22.4214	143.824
5	398110	3429.38	1202.37	3634.05	19.3211	148.895
6	316230	3639.66	1095.48	3800.94	16.7509	150.265
7	251190	3749.74	944.952	3866.97	14.1443	154.645
8	199530	3909.99	853.542	4002.07	12.3144	155.965
9	158490	4038.35	761.048	4109.43	10.6725	157.29
10	125890	4141.08	671.863	4195.22	9.21557	158.575
11	100000	4223.47	589.383	4264.39	7.9443	159.96
12	79433	4292.27	515.582	4323.12	6.84948	161.295
13	63096	4348.51	451.082	4371.85	5.92225	162.695
14	50119	4395.42	394.654	4413.1	5.13069	164.13
15	39811	4436.84	345.475	4450.27	4.45236	165.565
16	31623	4466.7	304.359	4477.06	3.89808	166.875
17	25119	4497.82	271.438	4506.01	3.45354	168.285
18	19953	4521.69	243.643	4528.25	3.0843	169.635
19	15849	4546.82	221.372	4552.21	2.78736	171.06
20	12589	4569.07	203.13	4573.58	2.54556	172.46
21	10000	4587.26	188.235	4591.12	2.34977	173.82
22	7943.3	4608.46	176.059	4611.82	2.18783	175.165
23	6309.6	4628.99	167.006	4632	2.06624	176.53
24	5011.9	4649.51	159.403	4652.24	1.96356	177.96
25	3981.1	4668.05	154.201	4670.6	1.89198	179.455
26	3162.3	4687.13	150.07	4689.53	1.83383	180.945
27	2511.9	4705.09	146.674	4707.38	1.78554	182.395
28	1995.3	4723.34	144.586	4725.55	1.75333	183.8
29	1584.9	4740.16	143.181	4742.32	1.73015	185.025
30	1258.9	4758.27	142.791	4760.41	1.71888	186.285
31	1000	4776.7	142.32	4778.82	1.70661	187.705
32	794.33	4799.81	142.659	4801.93	1.70243	189.235
33	630.96	4818.25	143.493	4820.39	1.70582	190.74
34	501.19	4835.05	145.079	4837.22	1.71868	192.26
35	398.11	4857.33	147.547	4859.57	1.73989	193.695
36	316.23	4875.31	151.045	4877.65	1.77454	195.17
37	251.19	4895.15	156.177	4897.64	1.82736	196.615
38	199.53	4915.83	162.75	4918.52	1.89622	198.045
39	158.49	4933.97	171.335	4936.94	1.98884	199.35
40	125.89	4956.8	181.489	4960.12	2.0969	200.82
41	100	4980.7	194.92	4984.51	2.24113	202.161
42	79.433	5001.8	210.333	5006.22	2.40795	203.711
43	63.096	5025.8	229.313	5031.03	2.61243	205.216
44	50.119	5039.51	252.058	5045.81	2.86334	206.821
45	39.811	5083.33	276.464	5090.84	3.11304	216.096
46	31.623	5115.11	306.371	5124.28	3.42765	217.816
47	25.119	5154.83	338.564	5165.93	3.75774	219.496
48	19.953	5197.05	378.822	5210.84	4.16902	221.331
49	15.849	5248.21	418.382	5264.86	4.55792	223.356
50	12.589	5302.35	464.626	5322.67	5.00783	225.471
51	10	5359.52	513.046	5384.02	5.46803	227.676
52	7.9433	5422.88	569.015	5452.65	5.99005	230.026
53	6.3096	5496.64	627.872	5532.38	6.51656	232.406
54	5.0119	5567.7	692.447	5610.59	7.08939	234.981
55	3.9811	5648.92	770.98	5701.29	7.77186	237.446
56	3.1623	5730.98	860.838	5795.27	8.54241	239.911
57	2.5119	5817.48	959.628	5896.09	9.36693	242.501
58	1.9953	5903.19	1096.38	6004.14	10.5215	245.301
59	1.5849	6011.08	1223.27	6134.28	11.5028	248.226
60	1.2589	6126.76	1434.97	6292.57	13.1819	251.341
61	1	6240.39	1607.42	6444.09	14.4444	256.607
62	0.79433	6381.67	1861.55	6647.64	16.2621	259.757
63	0.63096	6507.75	2145.63	6852.34	18.2476	263.367
64	0.50119	6641.65	2528.22	7106.57	20.8399	267.232
65	0.39811	6808.07	2964.11	7425.35	23.5274	271.607
66	0.31623	6971.79	3551.54	7824.27	26.995	276.367
67	0.25119	7223.72	4196.25	8354.08	30.1523	281.827
68	0.19953	7476.85	5028.2	9010.33	33.921	288.047
69	0.15849	7731.99	6018.47	9798.25	37.8967	295.257
70	0.12589	7967.85	7303.14	10808.5	42.5076	303.867
71	0.1	8448.9	8863.82	12245.5	46.3729	314.043