File: data/20200619/Z_p46_3.txt
Index	Frequency (Hz)	Z' (Ω)	-Z'' (Ω)	Z (Ω)	-Phase (°)	Time (s)
1	1000000	2928.26	2035.11	3566	34.7989	719.565
2	794330	3221.57	1855.14	3717.53	29.9356	721.756
3	630960	3570.79	1735.88	3970.37	25.926	723.912
4	501190	3891.56	1615.25	4213.46	22.5416	726.073
5	398110	4234.2	1467.44	4481.28	19.1147	734.703
6	316230	4474.42	1324.05	4666.21	16.4843	736.669
7	251190	4612.18	1142.4	4751.56	13.9117	743.518
8	199530	4808.73	1028.96	4917.59	12.0779	745.594
9	158490	4957.9	913.9	5041.43	10.4442	747.795
10	125890	5082.88	803.318	5145.97	8.98095	749.746
11	100000	5181.3	702.692	5228.73	7.72338	751.802
12	79433	5265.46	613.966	5301.14	6.6508	753.868
13	63096	5328.34	535.269	5355.16	5.73652	755.939
14	50119	5383.91	467.439	5404.17	4.96206	758.135
15	39811	5427.18	407.935	5442.48	4.29857	760.221
16	31623	5464.32	356.765	5475.96	3.73554	762.162
17	25119	5497.77	317.458	5506.93	3.30477	765.129
18	19953	5529.24	283.984	5536.53	2.94014	767.2
19	15849	5555.88	256.771	5561.81	2.6461	769.186
20	12589	5581.93	235.184	5586.89	2.41262	771.237
21	10000	5607.99	217.115	5612.19	2.21711	773.203
22	7943.3	5629.04	202.795	5632.69	2.06328	775.174
23	6309.6	5653.26	191.013	5656.48	1.93519	777.145
24	5011.9	5674.85	181.143	5677.74	1.82828	779.241
25	3981.1	5692.61	173.061	5695.24	1.74132	781.347
26	3162.3	5715.29	167.19	5717.74	1.6756	783.478
27	2511.9	5738.01	162.925	5740.32	1.62642	785.414
28	1995.3	5756.96	158.777	5759.15	1.57982	787.545
29	1584.9	5779.91	155.845	5782.01	1.5445	789.481
30	1258.9	5800.38	152.936	5802.39	1.51034	791.382
31	1000	5822.69	150.226	5824.63	1.47791	793.528
32	794.33	5838.13	148.785	5840.02	1.45987	795.739
33	630.96	5860.26	147.018	5862.1	1.4371	797.655
34	501.19	5879.56	146.197	5881.37	1.42439	799.681
35	398.11	5903.42	145.66	5905.21	1.41342	801.607
36	316.23	5924.15	145.034	5925.93	1.40242	803.718
37	251.19	5942.87	146.077	5944.66	1.40806	805.754
38	199.53	5962.43	148.014	5964.27	1.42204	807.865
39	158.49	5983.79	150.217	5985.68	1.43805	809.861
40	125.89	6004.19	154.143	6006.17	1.47061	811.902
41	100	6025.27	159.058	6027.37	1.51217	813.898
42	79.433	6045.88	163.551	6048.09	1.54957	816.089
43	63.096	6066.85	171.42	6069.28	1.61847	818.191
44	50.119	6090.75	153.561	6092.69	1.44424	820.422
45	39.811	6113.15	187.423	6116.02	1.75608	830.238
46	31.623	6136.59	197.017	6139.75	1.83887	832.704
47	25.119	6163.15	209.549	6166.72	1.94732	834.995
48	19.953	6192.21	226.696	6196.35	2.09666	837.611
49	15.849	6214.83	242.235	6219.55	2.23208	840.182
50	12.589	6245.69	260.845	6251.14	2.39151	842.818
51	10	6278.57	284.736	6285.02	2.59661	846.014
52	7.9433	6314.82	308.801	6322.36	2.7996	848.98
53	6.3096	6344.51	338.13	6353.51	3.05069	852.001
54	5.0119	6380.39	372.835	6391.27	3.34425	855.257
55	3.9811	6420.23	419.933	6433.95	3.74226	858.418
56	3.1623	6455.14	467.575	6472.05	4.14296	861.514
57	2.5119	6497.4	528.064	6518.82	4.6464	864.75
58	1.9953	6539.86	601.394	6567.46	5.25404	868.921
59	1.5849	6596.8	692.001	6633	5.9884	872.518
60	1.2589	6658.25	801.121	6706.27	6.86086	876.094
61	1	6710.49	942.112	6776.3	7.99175	882.401
62	0.79433	6785.23	1107.25	6874.98	9.26816	886.322
63	0.63096	6859.84	1285.49	6979.25	10.6137	890.508
64	0.50119	6934.22	1545.76	7104.42	12.5668	894.934
65	0.39811	7034.04	1840.73	7270.9	14.6648	899.91
66	0.31623	7110.67	2200.6	7443.4	17.1962	905.516
67	0.25119	7244.22	2667.65	7719.78	20.216	911.687
68	0.19953	7428.46	3141.91	8065.59	22.9262	918.703
69	0.15849	7621.39	3811.55	8521.36	26.5702	926.62
70	0.12589	7819.18	4575.22	9059.38	30.3331	935.826
71	0.1	7964.42	5524.99	9693.17	34.7494	946.922