File: data/20200619/Z_p42_3.txt
Index	Frequency (Hz)	Z' (Ω)	-Z'' (Ω)	Z (Ω)	-Phase (°)	Time (s)
1	1000000	2683.24	1865	3267.72	34.8014	658.654
2	794330	2950.64	1706.59	3408.62	30.0442	660.719
3	630960	3263.97	1612.08	3640.37	26.2849	662.809
4	501190	3575.32	1516.51	3883.65	22.9847	664.969
5	398110	3867.26	1390.96	4109.8	19.7825	673.504
6	316230	4113.3	1279.81	4307.8	17.283	675.489
7	251190	4241.66	1107.67	4383.9	14.6354	682.279
8	199530	4431.48	1010.98	4545.34	12.8513	684.224
9	158490	4586.26	910.681	4675.8	11.231	686.419
10	125890	4711.78	813.991	4781.57	9.80147	688.369
11	100000	4815.43	723.218	4869.44	8.54128	690.484
12	79433	4904.35	643.493	4946.39	7.475	692.539
13	63096	4978.08	569.365	5010.53	6.52482	694.604
14	50119	5041.57	505.503	5066.85	5.72575	696.764
15	39811	5095.47	450.138	5115.31	5.04845	698.864
16	31623	5140.54	399.468	5156.04	4.44349	700.804
17	25119	5181.08	360.686	5193.61	3.98229	702.769
18	19953	5218.14	328.487	5228.47	3.60207	704.714
19	15849	5254.01	300.893	5262.62	3.27771	706.784
20	12589	5286.18	278.128	5293.49	3.01179	708.785
21	10000	5317.58	259.665	5323.92	2.79561	710.715
22	7943.3	5346.76	244.231	5352.33	2.61536	712.655
23	6309.6	5373.42	232.167	5378.44	2.47401	714.65
24	5011.9	5401.48	222.169	5406.05	2.35532	716.635
25	3981.1	5426.56	215.752	5430.84	2.2768	718.595
26	3162.3	5453.96	210.266	5458.01	2.20783	720.645
27	2511.9	5478.75	207.631	5482.69	2.17033	722.585
28	1995.3	5505.76	205.448	5509.59	2.137	724.59
29	1584.9	5532.74	205.484	5536.56	2.12697	726.53
30	1258.9	5558.41	205.87	5562.22	2.12113	728.445
31	1000	5586.01	206.756	5589.83	2.11973	730.545
32	794.33	5613.05	209.688	5616.96	2.13942	732.725
33	630.96	5643.29	213.131	5647.32	2.16287	734.645
34	501.19	5670.76	218.569	5674.97	2.20727	736.63
35	398.11	5700.48	224.703	5704.91	2.25733	738.58
36	316.23	5729.78	233.493	5734.53	2.33356	740.655
37	251.19	5760.73	242.964	5765.85	2.41507	742.76
38	199.53	5791.74	256.03	5797.39	2.53117	744.68
39	158.49	5826.02	270.04	5832.28	2.6538	746.725
40	125.89	5861.15	287.356	5868.19	2.80681	748.93
41	100	5899.13	306.886	5907.11	2.97797	750.91
42	79.433	5937.21	330.477	5946.4	3.18591	752.965
43	63.096	5979.16	356.265	5989.76	3.40991	755.175
44	50.119	6015.54	401.047	6028.89	3.81418	757.265
45	39.811	6071.43	422.262	6086.09	3.97846	767.091
46	31.623	6126.56	459.61	6143.77	4.29025	769.356
47	25.119	6185.07	503.047	6205.49	4.64978	771.971
48	19.953	6247.62	556.51	6272.35	5.09022	774.636
49	15.849	6317.47	607.761	6346.64	5.49513	777.326
50	12.589	6393.31	673.769	6428.72	6.016	780.046
51	10	6478.01	738.978	6520.02	6.50788	783.111
52	7.9433	6568.07	818.478	6618.87	7.10328	786.136
53	6.3096	6666.67	907.663	6728.17	7.75312	789.321
54	5.0119	6766.34	1009.78	6841.27	8.48797	792.436
55	3.9811	6879.83	1127.58	6971.62	9.30783	795.556
56	3.1623	7008.39	1261.19	7120.97	10.2014	798.991
57	2.5119	7143.46	1424.14	7284.04	11.2748	802.391
58	1.9953	7280.64	1587.77	7451.76	12.3025	805.886
59	1.5849	7437.54	1848.52	7663.81	13.9575	809.491
60	1.2589	7666.52	2094.62	7947.51	15.2812	813.156
61	1	7830.27	2381.36	8184.38	16.9157	819.637
62	0.79433	8063.6	2740.78	8516.66	18.7727	823.612
63	0.63096	8329.6	3156.82	8907.74	20.7561	827.922
64	0.50119	8612.02	3639.09	9349.32	22.9069	832.602
65	0.39811	8921.51	4233.3	9874.93	25.3846	837.497
66	0.31623	9336.09	4974.76	10578.8	28.0511	843.227
67	0.25119	9798.25	5774.82	11373.4	30.5139	849.332
68	0.19953	10250.4	6770.34	12284.5	33.4445	856.372
69	0.15849	10873.6	7865.75	13420.3	35.8812	864.397
70	0.12589	11571.7	9225.21	14798.9	38.5626	873.778
71	0.1	12419.2	10918.8	16536.5	41.3216	884.773