File: data/20200619/Z_p40_3.txt
Index	Frequency (Hz)	Z' (Ω)	-Z'' (Ω)	Z (Ω)	-Phase (°)	Time (s)
1	1000000	2414.14	1617.53	2905.94	33.8231	783.056
2	794330	2641.34	1492.31	3033.76	29.4656	785.141
3	630960	2913.28	1407.35	3235.41	25.7843	787.251
4	501190	3176.79	1308.02	3435.54	22.379	789.451
5	398110	3426.51	1191.05	3627.62	19.1673	798.156
6	316230	3626.34	1099.8	3789.45	16.8716	800.111
7	251190	3745.55	941.821	3862.15	14.1144	806.886
8	199530	3905.15	851.213	3996.85	12.2965	808.846
9	158490	4033.45	758.818	4104.2	10.6546	811.071
10	125890	4138.75	669.793	4192.6	9.19273	812.996
11	100000	4219.42	587.74	4260.16	7.92994	815.046
12	79433	4288.46	517.123	4319.53	6.8758	816.992
13	63096	4344.54	450.364	4367.82	5.91826	818.922
14	50119	4391.08	394.087	4408.73	5.12839	821.012
15	39811	4429.14	344.352	4442.51	4.44563	822.957
16	31623	4462.75	303	4473.03	3.88415	824.922
17	25119	4491.54	271.013	4499.71	3.45296	826.982
18	19953	4517.04	243.565	4523.6	3.08648	828.912
19	15849	4540.27	220.828	4545.63	2.78454	830.912
20	12589	4560.01	202.228	4564.49	2.5393	832.837
21	10000	4582.36	187.123	4586.18	2.3384	834.832
22	7943.3	4604.36	176.37	4607.74	2.19365	836.832
23	6309.6	4622.32	166.967	4625.34	2.06873	838.932
24	5011.9	4644.69	159.559	4647.43	1.96751	840.992
25	3981.1	4662.17	153.699	4664.7	1.88821	842.947
26	3162.3	4680.98	150.149	4683.39	1.83721	844.922
27	2511.9	4697.81	146.893	4700.11	1.79096	847.047
28	1995.3	4717.29	144.754	4719.52	1.75762	849.027
29	1584.9	4737.21	143.477	4739.39	1.73479	851.007
30	1258.9	4756.55	142.396	4758.68	1.71474	853.052
31	1000	4772.88	142.397	4775	1.70889	855.042
32	794.33	4792.72	142.305	4794.83	1.70073	857.247
33	630.96	4812.49	143.564	4814.63	1.70871	859.197
34	501.19	4829.99	144.718	4832.16	1.71621	861.217
35	398.11	4851.92	147.273	4854.15	1.7386	863.117
36	316.23	4870.54	151.261	4872.89	1.77883	865.047
37	251.19	4891.27	155.689	4893.75	1.82311	867.027
38	199.53	4910.97	162.843	4913.67	1.89917	868.982
39	158.49	4931.3	171.008	4934.27	1.98611	870.953
40	125.89	4951.92	180.931	4955.23	2.09251	872.993
41	100	4975.89	195.098	4979.71	2.24534	875.013
42	79.433	4996.04	210.846	5000.49	2.4166	877.093
43	63.096	5019.52	229.094	5024.75	2.61321	879.268
44	50.119	5045.82	257.069	5052.37	2.91652	881.273
45	39.811	5078.14	276.483	5085.66	3.11644	891.033
46	31.623	5114.34	306.135	5123.49	3.42553	893.413
47	25.119	5148.74	338.777	5159.87	3.76452	895.673
48	19.953	5196.83	379.813	5210.69	4.18006	898.218
49	15.849	5242.47	419.417	5259.22	4.57413	900.893
50	12.589	5299.81	465.524	5320.22	5.01986	903.588
51	10	5357.07	514.477	5381.71	5.48569	906.518
52	7.9433	5422.95	569.2	5452.74	5.99189	909.473
53	6.3096	5492.81	629.327	5528.75	6.53603	912.613
54	5.0119	5562.01	695.801	5605.36	7.13059	915.763
55	3.9811	5643.69	772.457	5696.31	7.79369	918.898
56	3.1623	5729.08	861.552	5793.5	8.55218	922.138
57	2.5119	5818.43	971.643	5899	9.48057	925.394
58	1.9953	5919.53	1073.75	6016.13	10.2811	928.784
59	1.5849	6014.43	1242.92	6141.52	11.6761	932.204
60	1.2589	6126.09	1388.24	6281.41	12.7682	935.824
61	1	6242.26	1610.51	6446.67	14.4669	942.169
62	0.79433	6383.24	1857.15	6647.91	16.2219	945.979
63	0.63096	6509.63	2167.32	6860.94	18.4147	950.124
64	0.50119	6662.03	2521.98	7123.41	20.7347	954.709
65	0.39811	6818.96	2972	7438.48	23.5497	959.689
66	0.31623	7020.95	3561.98	7872.83	26.9003	965.124
67	0.25119	7234	4210.2	8369.98	30.1995	971.204
68	0.19953	7443.62	5101.74	9024.15	34.4262	978.06
69	0.15849	7683.77	6102.18	9812.09	38.4554	985.945
70	0.12589	8012.53	7377.07	10891.4	42.6355	995.095
71	0.1	8463.96	8870.62	12260.8	46.3439	1005.97