File: data/20200619/Z_p45_2.txt
Index	Frequency (Hz)	Z' (Ω)	-Z'' (Ω)	Z (Ω)	-Phase (°)	Time (s)
1	1000000	1849.11	1110.05	2156.72	30.9771	394.004
2	794330	2004.04	1047.26	2261.18	27.5903	396.904
3	630960	2183.6	990.164	2397.61	24.3922	400.584
4	501190	2359.04	931.289	2536.21	21.5429	404.429
5	398110	2520.18	845.318	2658.17	18.5425	414.729
6	316230	2667.36	771.629	2776.73	16.1344	416.394
7	251190	2743.66	666.825	2823.53	13.6604	420.264
8	199530	2857.53	604.652	2920.8	11.9475	421.889
9	158490	2950.48	540.764	2999.62	10.3859	423.429
10	125890	3025.06	478.382	3062.65	8.98633	425.184
11	100000	3085.17	420.892	3113.75	7.76858	426.834
12	79433	3135.19	369.293	3156.86	6.71791	435.07
13	63096	3176.67	323.786	3193.13	5.81983	439.615
14	50119	3210.14	283.275	3222.62	5.04292	441.315
15	39811	3237.61	249.173	3247.19	4.40092	443.05
16	31623	3262.12	219.434	3269.49	3.84834	444.86
17	25119	3282.43	196.382	3288.3	3.42383	447.67
18	19953	3302.75	176.89	3307.49	3.06573	449.48
19	15849	3319.74	160.854	3323.63	2.77402	451.555
20	12589	3336.76	148.076	3340.05	2.54095	453.12
21	10000	3352.45	137.873	3355.29	2.35502	455.715
22	7943.3	3366.17	129.359	3368.65	2.20075	462.7
23	6309.6	3380.92	122.944	3383.15	2.08259	465.56
24	5011.9	3395.73	118.267	3397.79	1.9947	467.385
25	3981.1	3408.51	114.836	3410.44	1.92962	468.78
26	3162.3	3420.86	112.977	3422.73	1.89155	470.5
27	2511.9	3437.35	111.882	3439.17	1.86426	471.89
28	1995.3	3450.41	111.431	3452.21	1.84973	473.3
29	1584.9	3463.86	111.766	3465.66	1.84809	474.72
30	1258.9	3477.43	113.534	3479.28	1.86997	476.17
31	1000	3493.26	114.821	3495.14	1.8826	477.53
32	794.33	3507.68	116.929	3509.63	1.90925	478.88
33	630.96	3524.41	120.403	3526.47	1.9566	481.075
34	501.19	3540.99	123.814	3543.16	2.00257	486.601
35	398.11	3556.41	128.696	3558.74	2.07246	488.956
36	316.23	3574.45	134.319	3576.97	2.15202	490.311
37	251.19	3593.96	141.251	3596.74	2.25069	492.531
38	199.53	3611.88	148.595	3614.94	2.35586	495.256
39	158.49	3632.34	158.688	3635.81	2.50152	501.016
40	125.89	3652.7	169.626	3656.63	2.65883	502.871
41	100	3672.4	181.429	3676.88	2.82831	504.431
42	79.433	3696.91	195.548	3702.07	3.02783	507.181
43	63.096	3721.36	211.265	3727.35	3.24925	509.336
44	50.119	3747.36	230.873	3754.47	3.52551	512.051
45	39.811	3779.4	249.838	3787.65	3.78204	521.721
46	31.623	3812.1	272.398	3821.82	4.08719	523.486
47	25.119	3846.35	298.437	3857.91	4.43667	525.571
48	19.953	3886.45	328.44	3900.31	4.83052	528.291
49	15.849	3928.86	360.084	3945.33	5.23658	530.776
50	12.589	3975.83	393.485	3995.25	5.65212	533.111
51	10	4022.39	431.858	4045.5	6.128	536.572
52	7.9433	4079.56	472.784	4106.87	6.61056	540.497
53	6.3096	4137.11	520.979	4169.79	7.17738	543.372
54	5.0119	4203.83	575.235	4243	7.79173	546.417
55	3.9811	4267.31	635.358	4314.35	8.46854	549.197
56	3.1623	4340.38	707.312	4397.63	9.25561	552.487
57	2.5119	4414.75	781.335	4483.36	10.0364	555.672
58	1.9953	4495.86	875.072	4580.23	11.0143	560.097
59	1.5849	4594.69	975.253	4697.05	11.9836	565.457
60	1.2589	4698	1107.82	4826.85	13.2683	569.787
61	1	4794.98	1264.46	4958.9	14.7729	579.832
62	0.79433	4913.98	1441.19	5120.96	16.3456	583.292
63	0.63096	5029.68	1648.15	5292.83	18.1432	587.122
64	0.50119	5177.36	1910.73	5518.69	20.2568	592.148
65	0.39811	5314.59	2223.3	5760.9	22.7014	598.668
66	0.31623	5463.79	2627.91	6062.91	25.686	603.913
67	0.25119	5636.54	3065.8	6416.36	28.5425	609.513
68	0.19953	5830.6	3682.78	6896.29	32.2777	616.788
69	0.15849	6066.43	4379.15	7481.88	35.8243	624.258
70	0.12589	6383.26	5198.74	8232.43	39.1605	632.998
71	0.1	6587.71	6169.46	9025.53	43.1222	643.243