File: data/20200619/Z_p41_1.txt
Index	Frequency (Hz)	Z' (Ω)	-Z'' (Ω)	Z (Ω)	-Phase (°)	Time (s)
1	1000000	2427.25	1596.62	2905.29	33.3366	140.725
2	794330	2648.51	1468.79	3028.53	29.0115	142.165
3	630960	2911.8	1382.12	3223.17	25.3919	143.595
4	501190	3167.61	1288.58	3419.68	22.1364	145.15
5	398110	3414.55	1167.35	3608.58	18.8743	150.131
6	316230	3610.77	1062.09	3763.74	16.391	151.461
7	251190	3719.81	910.448	3829.6	13.7532	155.411
8	199530	3874.83	821.448	3960.95	11.9693	156.751
9	158490	3998.98	729.786	4065.03	10.3423	158.171
10	125890	4095.14	642.051	4145.17	8.9105	159.401
11	100000	4173.08	561.247	4210.65	7.65988	160.776
12	79433	4238.38	490.121	4266.62	6.59631	162.101
13	63096	4292.7	427.493	4313.93	5.68711	163.506
14	50119	4334.28	372.891	4350.29	4.91723	164.951
15	39811	4369.63	325.814	4381.76	4.26428	166.316
16	31623	4400.24	286.598	4409.56	3.72655	167.671
17	25119	4426.98	255.603	4434.35	3.30445	168.936
18	19953	4451.45	229.487	4457.36	2.95117	170.261
19	15849	4472.18	208.126	4477.02	2.6645	171.606
20	12589	4494.97	191.714	4499.06	2.44222	172.871
21	10000	4512.86	176.698	4516.32	2.24224	174.151
22	7943.3	4532.8	166.488	4535.85	2.1035	175.481
23	6309.6	4552.44	158.562	4555.2	1.99481	176.836
24	5011.9	4570.35	152.304	4572.88	1.90864	178.121
25	3981.1	4588.57	147.67	4590.95	1.84326	179.381
26	3162.3	4606.76	143.557	4609	1.78489	180.636
27	2511.9	4622.77	141.368	4624.93	1.7516	181.986
28	1995.3	4640.35	140.435	4642.48	1.73346	183.246
29	1584.9	4659.35	139.788	4661.44	1.71845	184.461
30	1258.9	4676.66	140.084	4678.76	1.71572	185.751
31	1000	4695.16	140.852	4697.27	1.71833	187.076
32	794.33	4714.47	141.962	4716.61	1.72477	188.491
33	630.96	4733.38	143.965	4735.57	1.7421	189.736
34	501.19	4754.78	146.988	4757.05	1.77066	190.986
35	398.11	4773.64	150.61	4776.02	1.80711	192.286
36	316.23	4794.19	154.395	4796.67	1.84455	193.546
37	251.19	4816.38	160.943	4819.07	1.91388	194.836
38	199.53	4836.71	168.566	4839.65	1.99603	196.076
39	158.49	4859.87	175.967	4863.06	2.07366	197.396
40	125.89	4882.05	186.501	4885.61	2.18772	198.796
41	100	4905.95	197.334	4909.92	2.30339	200.101
42	79.433	4932.03	211.854	4936.58	2.45961	201.456
43	63.096	4957.58	227.023	4962.78	2.62192	202.872
44	50.119	4985.12	246.937	4991.23	2.83582	204.332
45	39.811	5020.15	268.404	5027.32	3.06042	213.482
46	31.623	5050.95	290.137	5059.27	3.28758	215.092
47	25.119	5091.66	320.082	5101.71	3.59711	216.692
48	19.953	5130.21	351.695	5142.25	3.92171	218.607
49	15.849	5175.61	386.211	5190	4.26758	220.527
50	12.589	5222.21	423.05	5239.32	4.63141	222.582
51	10	5275.97	465.847	5296.5	5.04591	224.817
52	7.9433	5336.64	511.087	5361.05	5.4705	227.107
53	6.3096	5399.44	562.517	5428.67	5.94765	229.507
54	5.0119	5467.6	619.968	5502.64	6.4691	231.802
55	3.9811	5536.17	684.284	5578.3	7.04615	234.232
56	3.1623	5614.11	765.742	5666.09	7.76698	236.687
57	2.5119	5703.08	843.455	5765.11	8.41276	239.237
58	1.9953	5785	950.079	5862.5	9.32652	241.872
59	1.5849	5889.13	1078.78	5987.12	10.3805	244.677
60	1.2589	5952.13	1238.5	6079.62	11.7542	247.617
61	1	6073.31	1405.6	6233.84	13.031	252.697
62	0.79433	6190.5	1615.45	6397.81	14.6256	255.887
63	0.63096	6323.88	1860.23	6591.81	16.3917	259.378
64	0.50119	6433.15	2178.06	6791.86	18.7045	263.188
65	0.39811	6577.99	2561.93	7059.28	21.2794	267.333
66	0.31623	6742.84	3066.66	7407.45	24.4561	272.098
67	0.25119	6945.04	3590.04	7818.05	27.3354	277.593
68	0.19953	7178.99	4289.62	8362.94	30.8593	283.858
69	0.15849	7380.76	5128.07	8987.36	34.7911	291.013
70	0.12589	7621.25	6256.33	9860.27	39.3828	299.513
71	0.1	8045.9	7484.98	10989.2	42.9316	309.758