File: data/20200619/Z_p45_1.txt
Index	Frequency (Hz)	Z' (Ω)	-Z'' (Ω)	Z (Ω)	-Phase (°)	Time (s)
1	1000000	1851.36	1120.68	2164.13	31.1876	60.9789
2	794330	1998.75	1044.97	2255.43	27.601	62.3989
3	630960	2179.03	988.564	2392.78	24.4025	63.7889
4	501190	2356.72	932.983	2534.68	21.5977	65.339
5	398110	2517.78	842.633	2655.04	18.504	69.4641
6	316230	2661.09	776.689	2772.12	16.2709	70.7291
7	251190	2738.98	665.38	2818.64	13.6544	74.9942
8	199530	2853.31	602.685	2916.26	11.9269	76.3192
9	158490	2945.04	539.219	2993.99	10.3756	77.7592
10	125890	3021.67	477.796	3059.21	8.98541	79.0542
11	100000	3081.93	420.155	3110.44	7.76318	80.4393
12	79433	3132.04	368.634	3153.66	6.7127	81.7443
13	63096	3171.24	322.761	3187.62	5.81142	83.0893
14	50119	3206.16	282.811	3218.61	5.04094	84.5443
15	39811	3233.88	248.673	3243.43	4.39717	85.8694
16	31623	3257.38	218.617	3264.71	3.83961	87.3694
17	25119	3279.09	195.688	3284.92	3.41523	88.7644
18	19953	3297.12	176.546	3301.84	3.06501	90.2994
19	15849	3314.21	160.047	3318.07	2.76473	91.9595
20	12589	3330.36	147.349	3333.62	2.53335	93.2695
21	10000	3346.53	136.885	3349.33	2.3423	94.7395
22	7943.3	3360.4	129.058	3362.87	2.1994	96.0945
23	6309.6	3373.46	122.603	3375.68	2.08141	97.5296
24	5011.9	3388.94	118.015	3390.99	1.99444	98.8646
25	3981.1	3401.45	114.817	3403.39	1.9333	100.205
26	3162.3	3415.78	112.407	3417.63	1.88482	101.5
27	2511.9	3428.23	111.722	3430.05	1.86655	102.87
28	1995.3	3443.78	111.335	3445.58	1.85169	104.235
29	1584.9	3458.34	111.562	3460.14	1.84766	105.505
30	1258.9	3472.64	112.911	3474.48	1.86228	106.88
31	1000	3487.04	114.607	3488.92	1.88243	108.245
32	794.33	3502.73	117.168	3504.69	1.91586	109.685
33	630.96	3519.35	120.185	3521.4	1.95587	110.955
34	501.19	3534.04	123.952	3536.21	2.00875	112.62
35	398.11	3550.92	128.469	3553.24	2.07201	113.985
36	316.23	3569.16	134.316	3571.69	2.15515	115.545
37	251.19	3587.37	140.964	3590.13	2.25026	116.99
38	199.53	3604.81	148.73	3607.88	2.36262	118.295
39	158.49	3625.46	158.374	3628.92	2.50131	119.61
40	125.89	3645.61	168.775	3649.51	2.65064	121.035
41	100	3665.57	181.769	3670.07	2.83887	122.465
42	79.433	3691.36	195.566	3696.54	3.03267	123.96
43	63.096	3714.9	211.601	3720.92	3.26005	125.385
44	50.119	3739.14	228.666	3746.13	3.49954	126.8
45	39.811	3771.8	249.902	3780.07	3.79062	136.34
46	31.623	3804.26	272.866	3814.04	4.10259	138.035
47	25.119	3840.4	298.458	3851.98	4.44383	139.65
48	19.953	3877.69	327.477	3891.49	4.82726	141.54
49	15.849	3922.39	358.969	3938.78	5.22903	143.66
50	12.589	3966.84	393.101	3986.27	5.65935	145.735
51	10	4018.22	431.478	4041.32	6.12896	148.096
52	7.9433	4072.12	475.188	4099.75	6.65592	150.446
53	6.3096	4131.37	521.375	4164.14	7.19265	152.806
54	5.0119	4193.79	574.77	4233	7.80392	155.161
55	3.9811	4262.78	635.607	4309.9	8.48069	157.666
56	3.1623	4332.38	705.681	4389.47	9.2514	160.286
57	2.5119	4407.78	780.199	4476.3	10.0377	162.941
58	1.9953	4490.37	870.122	4573.89	10.9666	165.616
59	1.5849	4585.55	991.862	4691.59	12.2052	168.371
60	1.2589	4684.41	1112.97	4814.81	13.3651	171.201
61	1	4792.04	1267.48	4956.83	14.8153	176.266
62	0.79433	4910.66	1449.06	5119.99	16.4405	179.446
63	0.63096	5030.77	1647.9	5293.79	18.1369	183.006
64	0.50119	5150.82	1917.43	5496.13	20.4181	186.836
65	0.39811	5284.42	2231.64	5736.31	22.8947	190.986
66	0.31623	5454.7	2636.62	6058.51	25.7975	195.776
67	0.25119	5623.82	3069.62	6407.02	28.6268	201.226
68	0.19953	5840.56	3623.88	6873.48	31.8183	207.492
69	0.15849	6058.22	4311.7	7435.92	35.4399	214.882
70	0.12589	6297.15	5222.28	8180.85	39.6692	223.382
71	0.1	6687.48	6189.33	9112.09	42.7846	233.637