File: data/20200619/Z_p54_1.txt
Index	Frequency (Hz)	Z' (Ω)	-Z'' (Ω)	Z (Ω)	-Phase (°)	Time (s)
1	1000000	2555.02	1877.09	3170.42	36.3035	67.534
2	794330	2839.17	1758.92	3339.86	31.7791	69.104
3	630960	3163.29	1677.32	3580.47	27.9346	70.6141
4	501190	3487.56	1594.31	3834.7	24.5671	72.2491
5	398110	3800.76	1481.86	4079.42	21.3001	77.3642
6	316230	4071.29	1374.36	4297	18.6534	78.7942
7	251190	4221.34	1205.84	4390.19	15.9421	82.9443
8	199530	4428.43	1100.94	4563.23	13.9612	84.2543
9	158490	4602.85	995.957	4709.37	12.2093	85.6493
10	125890	4743.76	891.602	4826.82	10.6447	87.0994
11	100000	4861.23	790.625	4925.1	9.23763	88.6244
12	79433	4960.55	699.308	5009.6	8.02433	89.9744
13	63096	5040.04	616.091	5077.55	6.96922	91.2494
14	50119	5109.05	541.224	5137.64	6.04704	92.5595
15	39811	5166.18	476.537	5188.11	5.27015	93.8895
16	31623	5211.04	418.083	5227.79	4.58703	95.3395
17	25119	5256.43	372.065	5269.58	4.04881	96.7296
18	19953	5292.51	332.725	5302.96	3.59729	98.0296
19	15849	5324.37	298.863	5332.75	3.21271	99.3296
20	12589	5354.79	269.616	5361.58	2.88243	100.635
21	10000	5383.53	247.378	5389.21	2.63094	102.055
22	7943.3	5411.34	226.787	5416.09	2.39984	103.525
23	6309.6	5434.89	211.098	5438.99	2.22432	104.955
24	5011.9	5456.12	198.146	5459.72	2.07985	106.27
25	3981.1	5480.3	187.607	5483.51	1.96064	107.56
26	3162.3	5500.06	179.319	5502.98	1.86736	108.855
27	2511.9	5521.84	172.482	5524.53	1.78913	110.25
28	1995.3	5539.77	168.083	5542.32	1.73788	111.67
29	1584.9	5562.22	164.647	5564.66	1.69552	112.975
30	1258.9	5582.18	162.878	5584.56	1.67131	114.22
31	1000	5603.36	161.611	5605.69	1.65205	115.575
32	794.33	5623.21	161.061	5625.52	1.64063	116.975
33	630.96	5644.39	162.503	5646.72	1.6491	118.38
34	501.19	5664.93	164.605	5667.32	1.66437	119.83
35	398.11	5685.33	168.616	5687.83	1.69878	121.03
36	316.23	5709.81	173.508	5712.45	1.74055	122.31
37	251.19	5734.54	180.92	5737.39	1.80704	123.7
38	199.53	5757.74	188.628	5760.83	1.87639	125.125
39	158.49	5782.24	199.7	5785.69	1.97802	126.55
40	125.89	5808.62	212.866	5812.52	2.09875	127.885
41	100	5835.23	226.777	5839.63	2.22559	129.2
42	79.433	5860.06	243.294	5865.11	2.3774	130.625
43	63.096	5893.43	262.971	5899.29	2.5549	132.11
44	50.119	5929.8	295.227	5937.14	2.85024	133.675
45	39.811	5964.34	309.748	5972.37	2.97289	143.235
46	31.623	5997.79	337.046	6007.25	3.21636	145.545
47	25.119	6038.54	369.106	6049.81	3.49785	147.43
48	19.953	6085.06	407.488	6098.69	3.8311	149.331
49	15.849	6130.4	451.978	6147.04	4.21663	151.431
50	12.589	6182.26	500.538	6202.49	4.62877	153.571
51	10	6238.95	556.34	6263.7	5.0957	155.951
52	7.9433	6296.9	621.383	6327.49	5.63574	159.051
53	6.3096	6364.9	698.201	6403.08	6.26006	161.486
54	5.0119	6433.08	791.176	6481.55	7.01134	163.816
55	3.9811	6513.08	896.496	6574.49	7.83725	166.286
56	3.1623	6603.44	1024.22	6682.39	8.81652	169.141
57	2.5119	6687.24	1174.49	6789.59	9.96134	171.801
58	1.9953	6792.75	1349.18	6925.44	11.2339	174.436
59	1.5849	6914.02	1575.06	7091.16	12.8334	177.241
60	1.2589	7023.26	1787.36	7247.12	14.2782	180.141
61	1	7175.44	2133.11	7485.79	16.5561	185.096
62	0.79433	7352.93	2493.58	7764.24	18.7332	188.336
63	0.63096	7532.67	2949.38	8089.5	21.3826	191.881
64	0.50119	7750.21	3473.85	8493.14	24.1432	195.756
65	0.39811	7987.41	4137.84	8995.57	27.3862	199.961
66	0.31623	8274.04	4901.24	9616.75	30.641	204.837
67	0.25119	8580.39	5891.21	10408.1	34.4731	210.267
68	0.19953	8924.26	6983.31	11331.8	38.0435	216.727
69	0.15849	9369.08	8392.15	12578.1	41.8517	223.972
70	0.12589	9980.53	10037.2	14154.7	45.1621	232.447
71	0.1	10447.5	11970.1	15888.1	48.8854	242.602