File: data/20200619/Z_p50_2.txt
Index	Frequency (Hz)	Z' (Ω)	-Z'' (Ω)	Z (Ω)	-Phase (°)	Time (s)
1	1000000	2405.94	1653.49	2919.35	34.4989	221.876
2	794330	2648.32	1532.97	3059.99	30.0642	223.596
3	630960	2925.84	1471.27	3274.93	26.6958	225.156
4	501190	3202.22	1382.54	3487.92	23.3519	226.606
5	398110	3458.71	1283.07	3689.04	20.3532	230.871
6	316230	3682.26	1189.43	3869.59	17.9014	232.311
7	251190	3817.08	1037.01	3955.44	15.199	236.736
8	199530	3996.9	948.582	4107.93	13.3509	237.991
9	158490	4144.94	857.971	4232.8	11.6946	239.431
10	125890	4269.26	764.378	4337.15	10.1508	240.731
11	100000	4367.02	677.744	4419.3	8.82169	242.166
12	79433	4448.11	599.527	4488.33	7.67621	243.546
13	63096	4518.34	529.192	4549.22	6.68011	244.966
14	50119	4574.66	467.72	4598.51	5.83773	246.516
15	39811	4623.47	413.557	4641.93	5.11135	247.881
16	31623	4669.4	369.304	4683.98	4.52213	249.206
17	25119	4705.84	329.896	4717.39	4.01008	250.526
18	19953	4737.61	297.042	4746.91	3.58767	251.931
19	15849	4769.1	271.148	4776.8	3.25406	253.391
20	12589	4797.4	248.715	4803.84	2.96777	254.706
21	10000	4822.5	232.493	4828.1	2.7601	256.061
22	7943.3	4848.97	217.007	4853.82	2.56246	257.851
23	6309.6	4873.65	205.679	4877.98	2.41658	259.236
24	5011.9	4897.05	196.94	4901.01	2.30297	260.636
25	3981.1	4920.94	190.485	4924.63	2.21675	262.041
26	3162.3	4944.43	185.975	4947.93	2.15405	263.416
27	2511.9	4965.44	183.362	4968.82	2.11484	264.776
28	1995.3	4987.36	180.563	4990.63	2.07344	266.121
29	1584.9	5011.1	180.075	5014.33	2.05805	267.426
30	1258.9	5035.37	180.332	5038.6	2.05106	268.827
31	1000	5059.33	181.916	5062.6	2.05927	270.192
32	794.33	5083.6	184.217	5086.93	2.07535	271.507
33	630.96	5104.22	187.439	5107.66	2.10309	272.927
34	501.19	5130.81	192.756	5134.43	2.1515	274.282
35	398.11	5157.49	198.827	5161.32	2.20773	275.482
36	316.23	5182.4	205.847	5186.49	2.27462	276.922
37	251.19	5209.13	216.781	5213.64	2.38302	278.357
38	199.53	5238.84	228.531	5243.82	2.4978	279.832
39	158.49	5268.54	242.585	5274.12	2.63627	281.117
40	125.89	5299.79	259.115	5306.12	2.79905	282.512
41	100	5331.85	279.129	5339.15	2.99677	283.922
42	79.433	5365.43	302.485	5373.95	3.22673	285.387
43	63.096	5403.18	329.141	5413.2	3.48593	287.007
44	50.119	5426.84	350.649	5438.16	3.69696	288.422
45	39.811	5488.89	391.402	5502.82	4.07875	297.622
46	31.623	5539.34	431.861	5556.15	4.4579	299.237
47	25.119	5591.94	474.722	5612.05	4.85243	300.887
48	19.953	5648.03	526.901	5672.55	5.32967	302.712
49	15.849	5716.07	580.53	5745.47	5.79914	304.787
50	12.589	5788.23	646.078	5824.17	6.36895	306.962
51	10	5866.99	716.398	5910.56	6.96174	309.272
52	7.9433	5957.57	797.532	6010.72	7.62478	311.637
53	6.3096	6046.24	884.557	6110.61	8.32325	313.992
54	5.0119	6152.07	983.236	6230.14	9.08034	316.507
55	3.9811	6266.03	1096.79	6361.3	9.92834	318.947
56	3.1623	6377.58	1225.87	6494.32	10.8804	321.572
57	2.5119	6522.17	1382.3	6667.04	11.9661	324.158
58	1.9953	6654.6	1567.14	6836.64	13.2515	326.838
59	1.5849	6831.57	1750.47	7052.27	14.3719	329.603
60	1.2589	6988.68	2022.34	7275.4	16.139	332.503
61	1	7199.45	2301.05	7558.23	17.7246	337.613
62	0.79433	7438.44	2643.75	7894.29	19.5661	340.818
63	0.63096	7671.81	3035.13	8250.37	21.5848	344.348
64	0.50119	7964.72	3521.96	8708.67	23.8548	348.193
65	0.39811	8276.46	4090.97	9232.32	26.3027	352.443
66	0.31623	8688.63	4765.09	9909.51	28.7416	357.293
67	0.25119	9104.88	5527.15	10651.2	31.26	362.748
68	0.19953	9646.63	6405.79	11579.8	33.5859	369.083
69	0.15849	10241.7	7486.77	12686.4	36.1672	376.444
70	0.12589	10988.6	8805.48	14081.4	38.7062	385.019
71	0.1	11883.4	10126.7	15613	40.4366	395.194