File: data/20200619/Z_p55_3.txt
Index	Frequency (Hz)	Z' (Ω)	-Z'' (Ω)	Z (Ω)	-Phase (°)	Time (s)
1	1000000	2565.36	1802.96	3135.56	35.0999	733.08
2	794330	2824.06	1701.51	3297.04	31.0692	735.161
3	630960	3136.57	1621.55	3530.93	27.3382	737.237
4	501190	3453.35	1544.36	3782.95	24.0945	739.388
5	398110	3749.62	1438.61	4016.12	20.9902	746.342
6	316230	4008.95	1344.21	4228.31	18.5364	748.408
7	251190	4156.49	1177.54	4320.07	15.8175	755.102
8	199530	4360.35	1084.1	4493.1	13.9621	757.358
9	158490	4528.18	985.174	4634.11	12.2743	759.379
10	125890	4677.13	882.892	4759.73	10.6898	761.306
11	100000	4793.49	785.702	4857.45	9.3086	763.402
12	79433	4892.76	696.983	4942.15	8.10735	765.403
13	63096	4975.84	616.974	5013.94	7.06825	767.539
14	50119	5046.82	543.171	5075.96	6.1429	769.62
15	39811	5106.08	477.898	5128.4	5.34696	771.721
16	31623	5151.19	421.316	5168.39	4.67582	773.712
17	25119	5195.05	376.973	5208.71	4.15033	775.748
18	19953	5233.42	336.619	5244.24	3.68025	777.729
19	15849	5270.84	304.103	5279.61	3.30204	779.715
20	12589	5299.66	275.702	5306.83	2.97799	781.736
21	10000	5325.02	252.938	5331.03	2.7195	783.682
22	7943.3	5355.3	233.258	5360.37	2.49403	785.718
23	6309.6	5381.35	218.222	5385.77	2.32216	787.684
24	5011.9	5405.53	205.555	5409.44	2.17772	789.79
25	3981.1	5427.91	195.931	5431.45	2.06731	791.891
26	3162.3	5448.47	188.428	5451.73	1.98071	793.827
27	2511.9	5471.05	183.264	5474.12	1.91852	795.968
28	1995.3	5492.55	179.7	5495.49	1.87388	798.114
29	1584.9	5515.19	177.709	5518.05	1.84553	800.02
30	1258.9	5534.83	175.962	5537.62	1.82092	802.036
31	1000	5558.43	177.582	5561.27	1.82988	804.122
32	794.33	5582.62	180.106	5585.52	1.84784	806.388
33	630.96	5604.1	184.013	5607.12	1.88066	808.349
34	501.19	5626.84	189.588	5630.04	1.92976	810.48
35	398.11	5652.9	197.302	5656.34	1.99897	812.426
36	316.23	5674.77	206.842	5678.54	2.08747	814.422
37	251.19	5704.17	219.21	5708.38	2.20078	816.434
38	199.53	5729.93	233.712	5734.7	2.33568	818.475
39	158.49	5760.78	251.664	5766.27	2.50142	820.506
40	125.89	5787.44	273.465	5793.89	2.7053	822.532
41	100	5822.17	298.294	5829.81	2.93294	824.528
42	79.433	5861.64	326.543	5870.73	3.18856	826.719
43	63.096	5900.88	358.527	5911.76	3.47691	828.82
44	50.119	5925.73	392.852	5938.74	3.79292	830.961
45	39.811	5992.05	436.134	6007.9	4.16295	840.682
46	31.623	6046.12	480.855	6065.22	4.54722	842.983
47	25.119	6102.07	534.558	6125.44	5.00648	845.369
48	19.953	6167.33	595.914	6196.05	5.51903	847.89
49	15.849	6238.79	662.993	6273.91	6.06603	850.476
50	12.589	6316.61	739.614	6359.77	6.67837	853.177
51	10	6397.56	824.938	6450.53	7.3475	856.088
52	7.9433	6491.63	926.443	6557.4	8.12203	859.034
53	6.3096	6589.86	1045.64	6672.3	9.01618	861.98
54	5.0119	6699.14	1183.6	6802.89	10.0196	865.051
55	3.9811	6819.63	1338.87	6949.81	11.1074	868.152
56	3.1623	6953.34	1526.49	7118.93	12.3819	871.234
57	2.5119	7107.75	1748.69	7319.7	13.8217	874.645
58	1.9953	7271.01	2003.42	7541.97	15.4048	878.056
59	1.5849	7442.16	2307.39	7791.65	17.2257	881.457
60	1.2589	7614.71	2669.52	8069.08	19.3194	885.058
61	1	7872.62	3108.31	8464.02	21.5453	891.535
62	0.79433	8150.89	3622.34	8919.55	23.9609	895.461
63	0.63096	8423.05	4236.22	9428.33	26.6993	899.657
64	0.50119	8758.94	4980.9	10076.1	29.6254	904.243
65	0.39811	9136.04	5885.36	10867.6	32.7893	909.354
66	0.31623	9545.76	6933.19	11797.9	35.9913	914.975
67	0.25119	10060.4	8259.24	13016.4	39.3848	921.101
68	0.19953	10744.1	9750.42	14508.9	42.2241	928.168
69	0.15849	11457.1	11658.2	16345.6	45.4984	936.294
70	0.12589	12304.8	13827.8	18509.9	48.3354	945.485
71	0.1	13221.6	16390.8	21058.7	51.1088	956.376