File: data/20200619/Z_p51_3.txt
Index	Frequency (Hz)	Z' (Ω)	-Z'' (Ω)	Z (Ω)	-Phase (°)	Time (s)
1	1000000	1907.87	1133.38	2219.12	30.7126	682.612
2	794330	2055.99	1051.2	2309.14	27.08	684.818
3	630960	2238.98	989.121	2447.73	23.8346	686.939
4	501190	2415.13	923.639	2585.72	20.9288	689.125
5	398110	2566.72	836.75	2699.67	18.056	696.199
6	316230	2715.84	766.742	2822	15.7655	698.185
7	251190	2781.54	659.537	2858.66	13.3392	705.269
8	199530	2895.2	599.242	2956.57	11.6938	707.336
9	158490	2987.29	537.993	3035.34	10.2092	709.517
10	125890	3061.8	478.716	3098.99	8.88634	711.553
11	100000	3123.15	423.378	3151.72	7.72003	713.789
12	79433	3172.91	374.483	3194.93	6.73119	715.805
13	63096	3215.62	329.878	3232.49	5.85727	718.021
14	50119	3251.32	291.027	3264.32	5.11495	720.162
15	39811	3282.94	257.424	3293.02	4.48354	722.218
16	31623	3308.93	227.451	3316.73	3.93224	724.334
17	25119	3330.79	204.215	3337.04	3.50848	726.45
18	19953	3350.19	184.126	3355.25	3.1458	728.491
19	15849	3369.36	166.507	3373.47	2.82914	730.632
20	12589	3388.81	153.592	3392.29	2.59505	732.683
21	10000	3404.08	142.335	3407.06	2.39431	734.809
22	7943.3	3419.66	133.024	3422.24	2.22768	736.875
23	6309.6	3434.2	125.962	3436.51	2.10059	738.956
24	5011.9	3448.94	120.785	3451.05	2.00573	741.017
25	3981.1	3462.09	117.194	3464.08	1.93876	743.033
26	3162.3	3474.55	114.759	3476.44	1.89171	745.059
27	2511.9	3487.51	113.589	3489.36	1.86547	747.18
28	1995.3	3501.27	113.913	3503.12	1.86345	749.276
29	1584.9	3515.58	114.85	3517.45	1.87112	751.237
30	1258.9	3528.83	116.904	3530.77	1.89741	753.373
31	1000	3542.99	120.335	3545.04	1.94526	755.589
32	794.33	3558.92	124.726	3561.1	2.00716	757.795
33	630.96	3574.36	129.906	3576.72	2.08143	759.761
34	501.19	3589.46	136.808	3592.07	2.1827	762.003
35	398.11	3609.81	145.156	3612.72	2.30271	764.184
36	316.23	3624.82	155.14	3628.14	2.45074	766.165
37	251.19	3646	166.923	3649.82	2.62132	768.176
38	199.53	3666.88	181.002	3671.35	2.82589	770.182
39	158.49	3687.27	197.538	3692.56	3.06657	772.313
40	125.89	3710.82	216.571	3717.13	3.34011	774.429
41	100	3739.49	239.28	3747.14	3.66122	776.55
42	79.433	3768.43	264.117	3777.68	4.00912	778.706
43	63.096	3799.42	292.855	3810.69	4.40757	781.002
44	50.119	3841.25	328.652	3855.29	4.89024	783.328
45	39.811	3872.91	361.704	3889.76	5.33557	793.229
46	31.623	3916.76	402.8	3937.42	5.87166	795.71
47	25.119	3965.46	450.119	3990.92	6.47593	798.091
48	19.953	4019.43	504.721	4050.99	7.15719	800.697
49	15.849	4078.64	564.01	4117.46	7.87314	803.418
50	12.589	4146.68	633.514	4194.79	8.68628	806.114
51	10	4218.39	709.632	4277.67	9.54908	809.045
52	7.9433	4297.68	797.587	4371.06	10.5137	812.051
53	6.3096	4388.14	897.308	4478.94	11.5568	815.138
54	5.0119	4484.75	1012.76	4597.68	12.7253	818.324
55	3.9811	4592.5	1146.58	4733.47	14.0181	821.58
56	3.1623	4704.81	1299.57	4881	15.4412	824.951
57	2.5119	4832.06	1479.84	5053.59	17.0274	828.312
58	1.9953	4976.55	1707.51	5261.34	18.9376	831.813
59	1.5849	5127.5	1954.89	5487.52	20.8696	835.504
60	1.2589	5303.61	2240.75	5757.53	22.9038	839.08
61	1	5479.35	2613.7	6070.81	25.5016	845.742
62	0.79433	5699.48	3051.55	6464.98	28.1649	849.728
63	0.63096	5944.54	3557.95	6927.96	30.9015	853.999
64	0.50119	6191.51	4174.81	7467.52	33.991	858.57
65	0.39811	6482.59	4931.55	8145.19	37.2616	863.551
66	0.31623	6852.47	5829.15	8996.41	40.3866	869.183
67	0.25119	7244.98	6913.41	10014.2	43.6585	875.434
68	0.19953	7678.94	8294.58	11303.4	47.2072	882.455
69	0.15849	8170.83	9850.7	12798.4	50.3254	890.526
70	0.12589	8764.23	11797.6	14696.8	53.392	899.907
71	0.1	9515.16	14192.7	17087.1	56.161	910.963