File: data/20200619/Z_p53_1.txt
Index	Frequency (Hz)	Z' (Ω)	-Z'' (Ω)	Z (Ω)	-Phase (°)	Time (s)
1	1000000	2635.65	1707.57	3140.45	32.9381	140.467
2	794330	2879.75	1583.08	3286.2	28.7989	141.987
3	630960	3168.5	1493.2	3502.72	25.2329	143.392
4	501190	3435.26	1386.54	3704.52	21.98	144.792
5	398110	3703.26	1263.23	3912.78	18.8351	149.953
6	316230	3926.92	1140.12	4089.08	16.1898	151.398
7	251190	4036.54	991.847	4156.61	13.8051	155.603
8	199530	4201.09	895.246	4295.42	12.0297	156.938
9	158490	4335.84	798.778	4408.81	10.4384	158.238
10	125890	4450.01	703.32	4505.24	8.98127	159.523
11	100000	4537.65	618.999	4579.67	7.768	161.023
12	79433	4604.99	542.388	4636.82	6.7175	162.348
13	63096	4672.58	473.056	4696.47	5.78097	163.723
14	50119	4721.31	411.504	4739.21	4.98125	165.048
15	39811	4760.22	358.845	4773.72	4.31104	166.363
16	31623	4793.87	314.239	4804.16	3.75038	167.798
17	25119	4823.51	277.678	4831.5	3.29474	169.133
18	19953	4850.8	247.125	4857.1	2.91642	170.498
19	15849	4876.39	222.135	4881.44	2.6082	171.873
20	12589	4899.04	201.53	4903.19	2.35562	173.163
21	10000	4916.64	185.963	4920.16	2.16607	174.463
22	7943.3	4937.07	170.532	4940.01	1.97827	175.813
23	6309.6	4953.9	159.344	4956.46	1.84231	177.153
24	5011.9	4974.38	150.307	4976.65	1.73073	178.483
25	3981.1	4988.54	144.188	4990.62	1.65561	179.813
26	3162.3	5002.66	138.623	5004.58	1.58725	181.168
27	2511.9	5020.4	135.697	5022.23	1.54828	182.608
28	1995.3	5035.77	132.697	5037.52	1.50945	183.998
29	1584.9	5051.9	131.926	5053.62	1.49589	185.238
30	1258.9	5067.63	130.732	5069.31	1.47776	186.498
31	1000	5085.34	132.049	5087.05	1.48744	187.853
32	794.33	5098.91	134.088	5100.68	1.50638	189.173
33	630.96	5116.08	136.206	5117.89	1.52504	190.488
34	501.19	5135.01	139.567	5136.91	1.55689	191.813
35	398.11	5152.43	144.254	5154.45	1.60371	193.008
36	316.23	5171.07	151.041	5173.28	1.67307	194.298
37	251.19	5192.31	159.102	5194.75	1.7551	195.643
38	199.53	5210.29	169.604	5213.05	1.86442	196.918
39	158.49	5231.91	182.72	5235.1	2.00019	198.253
40	125.89	5256.04	199.208	5259.81	2.17052	199.653
41	100	5279.14	215.556	5283.54	2.33818	201.018
42	79.433	5304.2	235.97	5309.44	2.54726	202.369
43	63.096	5336.98	261.681	5343.39	2.80706	203.854
44	50.119	5360.5	288.631	5368.27	3.08206	205.234
45	39.811	5402.01	317.85	5411.35	3.36735	214.309
46	31.623	5440.97	352.727	5452.4	3.70918	215.944
47	25.119	5484.04	391.057	5497.96	4.07876	217.584
48	19.953	5532.71	436.748	5549.92	4.51352	219.444
49	15.849	5588.57	483.499	5609.45	4.94467	221.474
50	12.589	5644.53	539.194	5670.23	5.45662	223.529
51	10	5709.03	600.168	5740.49	6.00124	225.844
52	7.9433	5772.02	669.597	5810.73	6.61715	228.174
53	6.3096	5849.69	748.07	5897.33	7.28755	230.474
54	5.0119	5922.91	844.75	5982.85	8.11701	232.864
55	3.9811	6001.24	950.508	6076.05	9.00004	235.359
56	3.1623	6084.87	1090.59	6181.83	10.1612	237.954
57	2.5119	6170.84	1244.09	6295	11.3985	240.494
58	1.9953	6265.42	1421.45	6424.64	12.7825	243.114
59	1.5849	6399.04	1658.8	6610.54	14.5327	245.874
60	1.2589	6468.23	1903.21	6742.42	16.396	248.704
61	1	6611.79	2270.57	6990.8	18.9531	253.759
62	0.79433	6790.49	2711.75	7311.93	21.7691	256.97
63	0.63096	6955.97	3233.39	7670.74	24.9308	260.525
64	0.50119	7138.54	3884.75	8127.12	28.5548	264.415
65	0.39811	7372.54	4661.93	8722.84	32.3067	268.67
66	0.31623	7649.28	5641.29	9504.51	36.4085	273.475
67	0.25119	7993.94	6602.17	10367.8	39.5532	278.905
68	0.19953	8436.01	8024.93	11643.3	43.5694	285.095
69	0.15849	8922.88	9765.25	13227.9	47.5809	292.32
70	0.12589	9481.99	11902.8	15217.9	51.4586	300.875
71	0.1	10314.8	14280.2	17615.8	54.1589	311.031