File: data/20200619/Z_p55_2.txt
Index	Frequency (Hz)	Z' (Ω)	-Z'' (Ω)	Z (Ω)	-Phase (°)	Time (s)
1	1000000	2559.89	1818.75	3140.21	35.3931	456.236
2	794330	2825.21	1694.89	3294.61	30.9602	457.661
3	630960	3137	1619.7	3530.47	27.3083	459.096
4	501190	3445.49	1541.28	3774.52	24.1005	460.581
5	398110	3744.88	1434.62	4010.27	20.9613	465.641
6	316230	4004.89	1328.61	4219.52	18.3531	466.956
7	251190	4150.42	1173.51	4313.13	15.788	471.016
8	199530	4355.21	1080.88	4487.33	13.9381	472.366
9	158490	4525.89	983.801	4631.58	12.2637	473.786
10	125890	4668.23	879.582	4750.37	10.6705	475.051
11	100000	4788.6	783.817	4852.33	9.29596	476.436
12	79433	4888.39	695.439	4937.61	8.09675	477.701
13	63096	4969.57	614.256	5007.39	7.04623	479.181
14	50119	5039.51	542.171	5068.59	6.14049	480.626
15	39811	5097.01	477.161	5119.3	5.34821	482.012
16	31623	5146.54	420.839	5163.72	4.67475	483.297
17	25119	5188.51	375.319	5202.07	4.13737	484.627
18	19953	5227.8	337.4	5238.68	3.69272	485.952
19	15849	5262.44	302.948	5271.15	3.29477	487.262
20	12589	5292.61	274.606	5299.73	2.97012	488.547
21	10000	5318.67	251.845	5324.63	2.711	489.842
22	7943.3	5348.16	232.742	5353.23	2.49183	491.267
23	6309.6	5373.72	218.258	5378.15	2.32584	492.582
24	5011.9	5399.5	205.118	5403.39	2.17553	493.902
25	3981.1	5418.17	194.907	5421.68	2.0602	495.267
26	3162.3	5442.14	188.07	5445.39	1.97925	496.612
27	2511.9	5463.58	182.274	5466.62	1.91077	497.962
28	1995.3	5483.07	179.199	5485.99	1.87188	499.277
29	1584.9	5506.79	176.516	5509.62	1.83594	500.567
30	1258.9	5528.72	176.869	5531.55	1.83232	501.817
31	1000	5549.34	176.836	5552.15	1.82518	503.132
32	794.33	5574.64	179.686	5577.54	1.84616	504.642
33	630.96	5596.11	183.54	5599.12	1.8785	506.032
34	501.19	5620.22	188.869	5623.4	1.92471	507.382
35	398.11	5643.42	196.866	5646.86	1.99791	508.667
36	316.23	5670.46	205.861	5674.2	2.07916	509.967
37	251.19	5693.9	217.795	5698.06	2.19053	511.277
38	199.53	5718.58	233.749	5723.35	2.34069	512.582
39	158.49	5750.99	251.426	5756.48	2.50331	513.922
40	125.89	5780.19	271.49	5786.56	2.68915	515.352
41	100	5817.06	296.5	5824.61	2.91789	516.717
42	79.433	5851.18	325.128	5860.2	3.18045	518.107
43	63.096	5890.57	354.046	5901.2	3.43956	519.542
44	50.119	5928.47	395.582	5941.65	3.81745	520.897
45	39.811	5982.31	433.198	5997.97	4.14174	530.172
46	31.623	6035.9	479.877	6054.95	4.54567	531.807
47	25.119	6094.81	528.416	6117.68	4.95511	533.377
48	19.953	6157.46	591.701	6185.82	5.48898	535.328
49	15.849	6229.06	658.397	6263.76	6.03362	537.313
50	12.589	6306.78	734.883	6349.45	6.64629	539.298
51	10	6386.59	822.585	6439.34	7.33923	541.533
52	7.9433	6478.3	921.394	6543.5	8.09476	543.808
53	6.3096	6575.06	1040.89	6656.94	8.99579	546.213
54	5.0119	6682.17	1175.4	6784.76	9.97634	548.618
55	3.9811	6803.6	1335.5	6933.43	11.1055	551.033
56	3.1623	6947.52	1518.42	7111.52	12.3284	553.523
57	2.5119	7080.07	1741.67	7291.14	13.8201	556.088
58	1.9953	7240.24	1990.08	7508.76	15.369	558.813
59	1.5849	7430.86	2300.98	7778.96	17.2052	561.613
60	1.2589	7637.01	2672.49	8091.12	19.2869	564.483
61	1	7853.62	3092.74	8440.64	21.4944	569.463
62	0.79433	8126.12	3611.58	8892.54	23.9623	572.633
63	0.63096	8400.87	4204.32	9394.19	26.5862	576.213
64	0.50119	8721.68	4961.69	10034.2	29.6352	580.048
65	0.39811	9081.83	5842.6	10798.9	32.7543	584.318
66	0.31623	9540.07	6939.21	11796.9	36.0312	589.144
67	0.25119	10047.4	8169.53	12949.6	39.1145	594.569
68	0.19953	10672.7	9684.04	14411.4	42.2195	600.849
69	0.15849	11325.3	11525.5	16158.6	45.5019	608.074
70	0.12589	12162	13836.1	18421.5	48.6844	616.599
71	0.1	13223.2	16349.8	21027.8	51.0351	626.754