File: data/20200619/Z_p52_1.txt
Index	Frequency (Hz)	Z' (Ω)	-Z'' (Ω)	Z (Ω)	-Phase (°)	Time (s)
1	1000000	2383.14	1433.77	2781.2	31.0325	141.594
2	794330	2560.78	1296.84	2870.43	26.8587	143.044
3	630960	2784.69	1202.62	3033.28	23.3581	144.484
4	501190	3001.48	1111.34	3200.61	20.3178	146.039
5	398110	3202.95	989.193	3352.22	17.1627	150.19
6	316230	3374.42	896.493	3491.47	14.8783	151.46
7	251190	3447.59	753.829	3529.04	12.3338	155.625
8	199530	3573.39	673.762	3636.35	10.6778	156.9
9	158490	3673.16	596.262	3721.24	9.22038	158.215
10	125890	3752.31	520.268	3788.2	7.89389	159.555
11	100000	3813.92	451.974	3840.6	6.7584	160.94
12	79433	3863.37	392.051	3883.21	5.79448	162.24
13	63096	3906.78	340.001	3921.54	4.97383	163.555
14	50119	3939.14	294.5	3950.13	4.27562	164.935
15	39811	3966.13	256.148	3974.39	3.69526	166.34
16	31623	3990.16	221.587	3996.31	3.17855	167.63
17	25119	4008.47	196.812	4013.3	2.8109	168.905
18	19953	4026.04	176.001	4029.89	2.50312	170.175
19	15849	4043.29	157.961	4046.37	2.23727	171.455
20	12589	4058.8	143.354	4061.33	2.02281	172.81
21	10000	4070.62	131.887	4072.76	1.85572	174.085
22	7943.3	4086.94	123.173	4088.8	1.72627	175.385
23	6309.6	4100.34	115.52	4101.96	1.61379	176.665
24	5011.9	4110.17	109.593	4111.64	1.52737	177.985
25	3981.1	4124	105.218	4125.35	1.4615	179.37
26	3162.3	4136.32	101.888	4137.57	1.41105	180.66
27	2511.9	4148.75	99.2612	4149.94	1.37057	182.01
28	1995.3	4161	97.9317	4162.16	1.34824	183.315
29	1584.9	4173.09	96.1438	4174.2	1.3198	184.475
30	1258.9	4184.93	95.0037	4186.01	1.30047	185.73
31	1000	4197.26	95.1917	4198.34	1.29922	187.055
32	794.33	4210.27	95.6069	4211.35	1.30085	188.505
33	630.96	4223.54	96.3966	4224.64	1.30747	189.825
34	501.19	4235.96	97.8372	4237.09	1.32311	191.13
35	398.11	4248.91	99.8679	4250.09	1.34645	192.46
36	316.23	4263.06	103.289	4264.31	1.38794	193.79
37	251.19	4276.47	107.468	4277.82	1.43954	195.205
38	199.53	4290.18	113.338	4291.68	1.51329	196.485
39	158.49	4303.25	120.487	4304.93	1.60382	197.81
40	125.89	4318.64	128.964	4320.56	1.71046	199.205
41	100	4330.94	139.281	4333.18	1.84197	200.555
42	79.433	4348.88	151.35	4351.51	1.9932	201.966
43	63.096	4365.41	166.28	4368.58	2.18136	203.451
44	50.119	4391.59	187.133	4395.58	2.44	204.906
45	39.811	4406.55	201.748	4411.16	2.62138	214.071
46	31.623	4431.6	224.154	4437.26	2.8956	215.686
47	25.119	4457.1	249.232	4464.07	3.20053	217.271
48	19.953	4488.05	279.759	4496.76	3.56687	219.161
49	15.849	4518.59	313.513	4529.45	3.96899	221.106
50	12.589	4552.78	350.196	4566.23	4.39848	223.141
51	10	4591.86	394.88	4608.81	4.9151	225.491
52	7.9433	4632.88	444.469	4654.15	5.48007	227.831
53	6.3096	4678.33	503.054	4705.29	6.13735	230.261
54	5.0119	4728.38	574.809	4763.19	6.93119	232.656
55	3.9811	4782.62	657.083	4827.55	7.82288	235.116
56	3.1623	4843.33	758.141	4902.31	8.89648	237.716
57	2.5119	4900.52	869.372	4977.04	10.0598	240.201
58	1.9953	4975.09	998.366	5074.27	11.347	242.856
59	1.5849	5048.92	1171.88	5183.13	13.0673	245.641
60	1.2589	5137.72	1383.31	5320.69	15.0693	248.586
61	1	5229.59	1619.16	5474.52	17.2033	253.611
62	0.79433	5342.85	1919.12	5677.07	19.758	256.962
63	0.63096	5464.96	2260.64	5914.07	22.473	260.482
64	0.50119	5581.44	2699.01	6199.77	25.807	264.407
65	0.39811	5740.84	3232.46	6588.32	29.3823	268.657
66	0.31623	5899.65	3909.3	7077.32	33.5298	273.422
67	0.25119	6155.23	4705.29	7747.69	37.3957	278.882
68	0.19953	6417.05	5700.63	8583.46	41.6165	285.112
69	0.15849	6711.05	6877.91	9609.57	45.7035	292.432
70	0.12589	6984.39	8328.32	10869.3	50.0157	300.922
71	0.1	7465.81	10211.5	12649.6	53.8289	311.113