File: data/20200619/Z_p52_3.txt
Index	Frequency (Hz)	Z' (Ω)	-Z'' (Ω)	Z (Ω)	-Phase (°)	Time (s)
1	1000000	2387.5	1423.7	2779.77	30.8082	702.553
2	794330	2565.11	1304.73	2877.87	26.9598	704.623
3	630960	2789.67	1207.35	3039.73	23.4026	706.708
4	501190	3007.55	1106.33	3204.58	20.1961	708.854
5	398110	3208.35	996.293	3359.49	17.2512	715.654
6	316230	3373.2	891.438	3489.01	14.8032	717.599
7	251190	3453.19	756.016	3534.98	12.3491	724.329
8	199530	3580.04	677.24	3643.54	10.7121	726.284
9	158490	3679.78	596.713	3727.84	9.21091	728.314
10	125890	3760.61	522.102	3796.68	7.9041	730.294
11	100000	3822.2	453.824	3849.05	6.77122	732.334
12	79433	3872.81	391.651	3892.57	5.7746	734.379
13	63096	3912.4	340.547	3927.19	4.97466	736.409
14	50119	3947.32	295.74	3958.38	4.2847	738.449
15	39811	3974.85	256.885	3983.14	3.69774	740.564
16	31623	3998.39	224.048	4004.67	3.20718	742.504
17	25119	4018.17	197.986	4023.04	2.82083	744.449
18	19953	4035.56	176.305	4039.41	2.50154	746.394
19	15849	4052.51	158.198	4055.6	2.23552	748.369
20	12589	4068.8	144.517	4071.37	2.03419	750.309
21	10000	4079.48	132.771	4081.64	1.8641	752.384
22	7943.3	4094.76	123.359	4096.61	1.72558	754.369
23	6309.6	4109.08	115.705	4110.71	1.61293	756.324
24	5011.9	4121.67	110.259	4123.14	1.53236	758.359
25	3981.1	4133.28	105.814	4134.64	1.46647	760.344
26	3162.3	4145.25	102.618	4146.52	1.4181	762.27
27	2511.9	4159.42	99.753	4160.61	1.37383	764.345
28	1995.3	4169.93	97.8939	4171.08	1.34484	766.305
29	1584.9	4183.42	97.0511	4184.54	1.32897	768.3
30	1258.9	4194.65	96.1123	4195.75	1.31259	770.34
31	1000	4206.93	95.8661	4208.03	1.30541	772.305
32	794.33	4220.46	96.1219	4221.55	1.3047	774.365
33	630.96	4233.86	96.7064	4234.97	1.30848	776.305
34	501.19	4246.9	98.5009	4248.04	1.32866	778.25
35	398.11	4259.45	100.578	4260.64	1.35267	780.22
36	316.23	4271.09	103.484	4272.35	1.38794	782.195
37	251.19	4285.46	108.388	4286.83	1.44882	784.18
38	199.53	4299.31	113.83	4300.82	1.51663	786.175
39	158.49	4314.59	121.455	4316.29	1.61245	788.205
40	125.89	4326.01	129.788	4327.96	1.71845	790.255
41	100	4342.89	140.834	4345.18	1.85738	792.22
42	79.433	4361.14	153.042	4363.82	2.00981	794.25
43	63.096	4375.83	167.783	4379.04	2.19583	796.345
44	50.119	4397.61	177.699	4401.2	2.31395	798.515
45	39.811	4421.17	204.351	4425.89	2.64639	808.28
46	31.623	4443.19	225.465	4448.91	2.90492	810.545
47	25.119	4469.48	252.314	4476.6	3.23107	812.97
48	19.953	4498.73	282.508	4507.6	3.5933	815.466
49	15.849	4533.31	314.685	4544.22	3.97089	818.031
50	12.589	4567.93	354.167	4581.64	4.43347	820.726
51	10	4608.83	398.905	4626.06	4.94676	823.621
52	7.9433	4649.28	450.49	4671.06	5.53437	826.586
53	6.3096	4695.23	509.531	4722.8	6.19355	829.636
54	5.0119	4742.77	577.732	4777.83	6.94517	832.691
55	3.9811	4796.25	660.794	4841.55	7.84443	835.726
56	3.1623	4856.77	759.738	4915.84	8.89065	839.006
57	2.5119	4922.24	878.751	5000.07	10.1222	842.281
58	1.9953	4988.26	1009.33	5089.35	11.4389	845.621
59	1.5849	5064.34	1167.19	5197.11	12.9785	849.061
60	1.2589	5163.22	1393.53	5347.96	15.104	852.651
61	1	5251.6	1630.63	5498.94	17.2496	858.966
62	0.79433	5363.74	1920.78	5697.29	19.7027	862.836
63	0.63096	5487.64	2287.26	5945.23	22.6265	867.041
64	0.50119	5609.55	2714.35	6231.75	25.8214	871.527
65	0.39811	5750.44	3273.88	6617.09	29.654	876.357
66	0.31623	5954.56	3916.68	7127.22	33.3353	881.927
67	0.25119	6141.83	4728.96	7751.46	37.5948	887.982
68	0.19953	6445.5	5730.98	8624.89	41.6417	894.807
69	0.15849	6722.95	6971.77	9685.23	46.0409	902.842
70	0.12589	7104.03	8431.24	11025.1	49.883	911.977
71	0.1	7510.89	10160.4	12635.1	53.5269	922.927