File: data/20200619/Z_p51_1.txt
Index	Frequency (Hz)	Z' (Ω)	-Z'' (Ω)	Z (Ω)	-Phase (°)	Time (s)
1	1000000	1911.8	1141.25	2226.52	30.8351	67.944
2	794330	2060.15	1054.72	2314.44	27.1109	69.6291
3	630960	2238.19	996.591	2450.04	24.0018	71.3691
4	501190	2411.97	929.4	2584.84	21.073	72.9641
5	398110	2571.42	841.301	2705.54	18.1168	77.2692
6	316230	2716.64	774.618	2824.92	15.9149	78.6042
7	251190	2788.85	662.606	2866.48	13.3652	82.1243
8	199530	2903.19	602.396	2965.03	11.7222	83.7343
9	158490	2994.53	540.603	3042.94	10.2334	85.2094
10	125890	3069.24	480.873	3106.68	8.90442	86.5294
11	100000	3132.17	426.289	3161.05	7.75035	87.9094
12	79433	3182.19	376.017	3204.33	6.73899	89.2394
13	63096	3223.78	331.838	3240.81	5.87701	90.6345
14	50119	3259.23	292.958	3272.37	5.13626	91.9345
15	39811	3291.58	258.636	3301.73	4.49279	93.2495
16	31623	3317.13	229.086	3325.03	3.95065	94.5645
17	25119	3339.74	205.472	3346.06	3.52059	95.9096
18	19953	3361.5	185.147	3366.59	3.15259	97.2446
19	15849	3380.71	168.46	3384.9	2.85268	98.5596
20	12589	3398.53	154.074	3402.02	2.59575	99.9146
21	10000	3412.88	142.956	3415.87	2.39856	101.25
22	7943.3	3429.97	133.819	3432.58	2.23425	102.58
23	6309.6	3443.33	126.701	3445.66	2.10732	103.88
24	5011.9	3458.14	121.399	3460.27	2.01056	105.225
25	3981.1	3470.91	117.62	3472.9	1.94087	106.52
26	3162.3	3483.22	115.461	3485.13	1.89854	107.81
27	2511.9	3496.97	114.059	3498.83	1.86813	109.165
28	1995.3	3511.32	114.108	3513.17	1.86129	110.48
29	1584.9	3525.2	115.419	3527.09	1.87526	111.765
30	1258.9	3536.47	117.99	3538.44	1.91089	113.01
31	1000	3552.79	120.829	3554.84	1.94785	114.34
32	794.33	3568.09	125.512	3570.29	2.01463	115.74
33	630.96	3582.88	130.901	3585.27	2.09239	116.99
34	501.19	3599.45	137.217	3602.06	2.18315	118.335
35	398.11	3617.34	145.859	3620.28	2.30904	120.1
36	316.23	3636.13	155.901	3639.47	2.45509	121.96
37	251.19	3655.41	167.851	3659.26	2.62909	125.45
38	199.53	3676.09	182.407	3680.61	2.84068	127.09
39	158.49	3699.6	198.845	3704.94	3.07656	131.49
40	125.89	3720.85	217.999	3727.23	3.35303	133.125
41	100	3749.79	240.067	3757.47	3.66315	134.745
42	79.433	3777.47	265.893	3786.82	4.02636	136.72
43	63.096	3810.31	294.369	3821.66	4.41767	140.775
44	50.119	3850.5	319.798	3863.76	4.74773	142.6
45	39.811	3883.69	364.149	3900.73	5.3566	154.151
46	31.623	3928.21	405.577	3949.09	5.89475	156.701
47	25.119	3977.7	453.539	4003.47	6.5048	160.321
48	19.953	4030.99	507.715	4062.84	7.17877	163.116
49	15.849	4090.41	569.762	4129.9	7.92983	167.301
50	12.589	4157.08	637.888	4205.73	8.72378	170.986
51	10	4229.88	714.592	4289.82	9.58895	176.481
52	7.9433	4309.28	802.951	4383.45	10.5549	180.871
53	6.3096	4399.99	903.722	4491.84	11.6067	185.416
54	5.0119	4496.52	1018.28	4610.38	12.7599	190.786
55	3.9811	4605.41	1154.49	4747.91	14.0729	196.761
56	3.1623	4722.14	1311.81	4900.96	15.5253	202.702
57	2.5119	4847.49	1494.92	5072.77	17.1393	205.947
58	1.9953	4989.01	1713.28	5274.99	18.953	208.692
59	1.5849	5149.43	1969.42	5513.19	20.9296	211.487
60	1.2589	5313.74	2274.94	5780.24	23.177	214.437
61	1	5500.72	2632.61	6098.25	25.5755	219.497
62	0.79433	5727.8	3068.8	6498.1	28.1812	222.657
63	0.63096	5965.31	3579.17	6956.68	30.9636	226.467
64	0.50119	6218.36	4199.82	7503.77	34.0347	230.287
65	0.39811	6531.9	4950.6	8195.98	37.1589	234.552
66	0.31623	6848.35	5874.22	9022.55	40.6216	239.252
67	0.25119	7293.43	6961.99	10082.8	43.6681	244.757
68	0.19953	7760.67	8304.73	11366.5	46.9396	251.022
69	0.15849	8290.77	9870.33	12890.3	49.9708	258.233
70	0.12589	8828.53	11781.5	14722.4	53.1538	267.043
71	0.1	9565.82	14255	17167.1	56.1364	277.303