File: data/20200619/Z_p54_3.txt
Index	Frequency (Hz)	Z' (Ω)	-Z'' (Ω)	Z (Ω)	-Phase (°)	Time (s)
1	1000000	2551.85	1887.77	3174.21	36.4928	602.744
2	794330	2840.01	1758.92	3340.58	31.7715	604.825
3	630960	3166.46	1683.31	3586.09	27.9954	606.966
4	501190	3495.95	1589.94	3840.52	24.4559	609.182
5	398110	3803.39	1483.88	4082.61	21.313	617.552
6	316230	4065.78	1374.78	4291.92	18.6821	619.638
7	251190	4224.36	1204.83	4392.81	15.9187	626.392
8	199530	4433.82	1105.33	4569.52	13.9982	628.353
9	158490	4605.83	996.239	4712.34	12.205	630.494
10	125890	4747.01	892.971	4830.26	10.6536	632.505
11	100000	4863.46	791.921	4927.51	9.24835	634.616
12	79433	4962.3	699.151	5011.31	8.01976	636.657
13	63096	5045.34	617.169	5082.94	6.97404	638.718
14	50119	5112.61	543.221	5141.39	6.06499	640.924
15	39811	5171.43	477.152	5193.4	5.27157	642.98
16	31623	5221.23	419.423	5238.05	4.59272	644.971
17	25119	5259.8	372.688	5272.99	4.05297	647.052
18	19953	5297.97	333.074	5308.43	3.59735	648.983
19	15849	5332.33	299.483	5340.74	3.21456	651.054
20	12589	5362.43	270.574	5369.26	2.88854	653.17
21	10000	5391.01	246.56	5396.64	2.61862	655.152
22	7943.3	5417.16	227.324	5421.93	2.40293	657.163
23	6309.6	5442.45	211.558	5446.56	2.22607	659.334
24	5011.9	5465.24	197.89	5468.82	2.07371	661.385
25	3981.1	5484.61	187.696	5487.82	1.96002	663.321
26	3162.3	5507.51	179.437	5510.44	1.86606	665.277
27	2511.9	5528.24	173.1	5530.95	1.79346	667.338
28	1995.3	5549.13	167.827	5551.66	1.73231	669.304
29	1584.9	5569.92	164.993	5572.36	1.69673	671.33
30	1258.9	5589.8	163.133	5592.18	1.67165	673.326
31	1000	5610.85	161.779	5613.19	1.65157	675.307
32	794.33	5632.03	162.352	5634.37	1.65118	677.373
33	630.96	5654.17	162.944	5656.52	1.65071	679.379
34	501.19	5676.44	166.271	5678.87	1.6778	681.425
35	398.11	5696.42	169.294	5698.93	1.70229	683.356
36	316.23	5718.46	175.213	5721.15	1.75499	685.492
37	251.19	5742.94	181.735	5745.81	1.81252	687.578
38	199.53	5763.84	190.011	5766.98	1.88813	689.529
39	158.49	5789.85	200.912	5793.34	1.98741	691.565
40	125.89	5817.22	212.541	5821.1	2.09246	693.671
41	100	5843.06	228.601	5847.53	2.24047	695.692
42	79.433	5873.08	244.29	5878.16	2.38184	697.828
43	63.096	5902.05	263.202	5907.92	2.55341	699.949
44	50.119	5922.25	289.664	5929.33	2.80017	702.13
45	39.811	5971.99	310.743	5980.06	2.97861	712.017
46	31.623	6010.67	340.192	6020.29	3.23937	714.288
47	25.119	6050.52	372.132	6061.96	3.51949	716.664
48	19.953	6097.06	412.214	6110.98	3.8678	719.165
49	15.849	6145.38	452.232	6162	4.20875	721.801
50	12.589	6198.08	502.454	6218.42	4.63461	724.647
51	10	6250.02	559.278	6274.99	5.11346	727.633
52	7.9433	6310.67	624.344	6341.48	5.65015	730.579
53	6.3096	6375.01	701.336	6413.47	6.27805	733.535
54	5.0119	6451.07	792.689	6499.59	7.00522	736.536
55	3.9811	6524.68	899.85	6586.44	7.8524	739.767
56	3.1623	6614.33	1022.79	6692.95	8.79016	743.018
57	2.5119	6703.02	1179.17	6805.95	9.97718	746.444
58	1.9953	6811.78	1361.19	6946.46	11.3005	749.9
59	1.5849	6928.64	1572.37	7104.81	12.786	753.336
60	1.2589	7045	1818.92	7276.02	14.4768	756.927
61	1	7197	2139.93	7508.41	16.5591	763.63
62	0.79433	7364.11	2502.54	7777.71	18.7693	767.451
63	0.63096	7567.28	2948.65	8121.47	21.2888	771.577
64	0.50119	7746.76	3480.35	8492.65	24.1928	776.078
65	0.39811	7979.84	4147.12	8993.14	27.4609	781.049
66	0.31623	8270.27	4899.18	9612.46	30.6418	786.51
67	0.25119	8574.01	5878.66	10395.8	34.436	792.541
68	0.19953	9034.97	6981.43	11418	37.6937	799.427
69	0.15849	9484.28	8397.25	12667.5	41.5212	807.418
70	0.12589	10027.1	10048.9	14195.9	45.062	816.73
71	0.1	10525.1	11957.5	15929.8	48.6456	827.506