File: data/20200619/Z_p51_2.txt
Index	Frequency (Hz)	Z' (Ω)	-Z'' (Ω)	Z (Ω)	-Phase (°)	Time (s)
1	1000000	1912.8	1126.01	2219.61	30.4842	358.882
2	794330	2056.41	1053.66	2310.63	27.1297	360.407
3	630960	2236.21	992.341	2446.51	23.9297	361.952
4	501190	2408.93	928.613	2581.72	21.081	363.562
5	398110	2569.03	837.823	2702.2	18.0624	368.047
6	316230	2715.03	764.063	2820.5	15.7176	369.572
7	251190	2784.27	660.312	2861.5	13.3417	373.828
8	199530	2897.24	600.697	2958.86	11.7134	375.163
9	158490	2988.36	539.121	3036.6	10.2266	376.603
10	125890	3065.04	479.092	3102.25	8.88394	377.958
11	100000	3125.19	424.261	3153.86	7.73094	379.363
12	79433	3175.14	374.804	3197.18	6.73223	380.633
13	63096	3218.98	330.928	3235.94	5.8697	381.953
14	50119	3255.5	291.682	3268.54	5.11985	383.283
15	39811	3284.58	258.021	3294.7	4.49167	384.593
16	31623	3311.38	227.937	3319.21	3.93771	386.033
17	25119	3334.45	204.746	3340.73	3.51373	387.378
18	19953	3354.23	184.287	3359.29	3.14477	388.723
19	15849	3372.92	167.651	3377.08	2.84554	390.083
20	12589	3390.96	153.81	3394.45	2.59709	391.408
21	10000	3407.2	141.947	3410.15	2.38561	393.208
22	7943.3	3422.13	133.372	3424.72	2.23189	394.903
23	6309.6	3435.15	126.01	3437.46	2.10081	396.288
24	5011.9	3450.25	120.795	3452.37	2.00513	397.848
25	3981.1	3463.42	117.201	3465.41	1.93813	399.128
26	3162.3	3479.45	115.005	3481.35	1.89309	400.428
27	2511.9	3492.41	113.82	3494.26	1.86665	401.803
28	1995.3	3504.6	114.014	3506.45	1.86333	403.223
29	1584.9	3517.92	115.114	3519.81	1.87418	404.613
30	1258.9	3533.45	117.163	3535.39	1.89913	405.988
31	1000	3545.32	120.587	3547.37	1.94805	407.278
32	794.33	3562.58	124.876	3564.77	2.00752	408.673
33	630.96	3577.43	130.333	3579.8	2.08648	409.948
34	501.19	3593.34	137.039	3595.95	2.18404	411.778
35	398.11	3610.14	145.609	3613.07	2.30967	413.103
36	316.23	3627.93	155.543	3631.26	2.45499	414.473
37	251.19	3648.26	167.412	3652.1	2.62735	416.053
38	199.53	3670.12	181.713	3674.61	2.83449	417.423
39	158.49	3692.88	198.088	3698.19	3.07044	418.883
40	125.89	3715.62	217.534	3721.99	3.3506	420.618
41	100	3742.08	240.256	3749.78	3.67357	422.108
42	79.433	3770.69	264.591	3779.96	4.01389	423.563
43	63.096	3803.14	293.38	3814.44	4.41114	425.043
44	50.119	3843.61	334.612	3858.15	4.97543	426.623
45	39.811	3876.86	363.324	3893.84	5.3539	435.864
46	31.623	3921.52	405.23	3942.4	5.89972	437.524
47	25.119	3968.73	452.486	3994.44	6.50437	439.094
48	19.953	4022.89	506.23	4054.62	7.17225	441.064
49	15.849	4084.41	567.825	4123.7	7.91466	443.119
50	12.589	4152.41	637.63	4201.08	8.72995	445.114
51	10	4222.33	713.822	4282.25	9.59562	447.394
52	7.9433	4304.85	800.979	4378.73	10.5402	449.809
53	6.3096	4395.7	902.42	4487.37	11.6014	452.239
54	5.0119	4488.9	1017.48	4602.77	12.7713	454.604
55	3.9811	4593.62	1151.37	4735.71	14.0711	457.129
56	3.1623	4714.72	1308.07	4892.81	15.5063	459.594
57	2.5119	4840.87	1493.06	5065.89	17.1412	462.159
58	1.9953	4970.79	1712.04	5257.36	19.0047	464.959
59	1.5849	5124.91	1969.53	5490.33	21.0221	467.884
60	1.2589	5296.67	2282.19	5767.41	23.3099	470.884
61	1	5495.16	2631.39	6092.7	25.5877	476.079
62	0.79433	5715.47	3069.96	6487.78	28.2417	479.204
63	0.63096	5947.78	3576.82	6940.44	31.0214	482.675
64	0.50119	6207.06	4211.32	7500.86	34.1558	486.61
65	0.39811	6508.6	4951.07	8177.71	37.2602	490.94
66	0.31623	6844.36	5877.04	9021.36	40.6516	495.84
67	0.25119	7281.6	6955.57	10069.8	43.6882	501.37
68	0.19953	7721.41	8325.97	11355.3	47.1575	508.145
69	0.15849	8236.73	9915.81	12890.6	50.2847	515.925
70	0.12589	8905.48	11850.9	14824	53.0765	524.695
71	0.1	9488.15	14146.8	17034	56.1506	534.826