File: data/20200619/Z_p53_3.txt
Index	Frequency (Hz)	Z' (Ω)	-Z'' (Ω)	Z (Ω)	-Phase (°)	Time (s)
1	1000000	2633.39	1741.8	3157.31	33.4818	772.828
2	794330	2880.68	1592.46	3291.54	28.9341	774.889
3	630960	3164.52	1488.8	3497.24	25.1954	776.925
4	501190	3443.94	1400.84	3717.93	22.1342	779.076
5	398110	3704.4	1267.45	3915.23	18.8883	787.551
6	316230	3918	1157.99	4085.54	16.4653	789.527
7	251190	4043.59	995.39	4164.3	13.8292	796.391
8	199530	4209.58	899.405	4304.59	12.0603	798.377
9	158490	4345.32	798.864	4418.14	10.4172	800.398
10	125890	4456.81	707.367	4512.6	9.01852	802.314
11	100000	4548.28	620.675	4590.43	7.7708	804.35
12	79433	4625.74	541.13	4657.28	6.67227	806.416
13	63096	4677.55	472.523	4701.36	5.76841	808.507
14	50119	4727.67	412.334	4745.62	4.98456	810.553
15	39811	4768	357.489	4781.39	4.28782	812.619
16	31623	4801.87	312.192	4812.01	3.71983	814.595
17	25119	4829.83	277.494	4837.79	3.28827	816.522
18	19953	4859.2	247.832	4865.52	2.91971	818.508
19	15849	4883.49	221.475	4888.51	2.59668	820.464
20	12589	4905.79	200.602	4909.89	2.34157	822.4
21	10000	4921.96	183.654	4925.39	2.13689	824.446
22	7943.3	4944.33	169.875	4947.25	1.96777	826.367
23	6309.6	4961.64	158.533	4964.17	1.83007	828.308
24	5011.9	4978.63	149.987	4980.89	1.72558	830.319
25	3981.1	4994.83	142.978	4996.87	1.63965	832.245
26	3162.3	5013.05	137.723	5014.94	1.57369	834.281
27	2511.9	5027.44	134.641	5029.24	1.53408	836.237
28	1995.3	5043.05	132.078	5044.78	1.50024	838.198
29	1584.9	5060.47	130.907	5062.17	1.48183	840.079
30	1258.9	5075.26	130.995	5076.95	1.47851	842.05
31	1000	5091.89	130.782	5093.57	1.47128	844.016
32	794.33	5109.13	132.421	5110.85	1.48469	846.042
33	630.96	5126.36	134.826	5128.14	1.50656	848.153
34	501.19	5142.33	137.595	5144.17	1.53272	850.134
35	398.11	5181.19	144.527	5183.21	1.59782	852.295
36	316.23	5204.18	151.882	5206.4	1.67167	854.271
37	251.19	5224.81	159.763	5227.25	1.75143	856.327
38	199.53	5241.08	170.353	5243.85	1.86165	858.278
39	158.49	5261.65	182.229	5264.8	1.98356	860.324
40	125.89	5280.51	196.732	5284.17	2.13364	862.32
41	100	5293.72	213.303	5298.02	2.30741	864.361
42	79.433	5314.61	232.985	5319.71	2.51016	866.537
43	63.096	5339.78	254.757	5345.85	2.73147	868.643
44	50.119	5370.32	259.326	5376.58	2.76459	870.67
45	39.811	5402.71	311.056	5411.65	3.29512	880.396
46	31.623	5443.63	344.712	5454.54	3.62335	882.832
47	25.119	5487.1	382.204	5500.4	3.9845	885.038
48	19.953	5536.15	426.67	5552.57	4.40706	887.574
49	15.849	5585.74	474.714	5605.87	4.85771	890.165
50	12.589	5642.17	524.746	5666.52	5.31348	892.801
51	10	5701.63	586.079	5731.67	5.8689	895.767
52	7.9433	5770.89	657.097	5808.18	6.49595	898.723
53	6.3096	5843.44	732.023	5889.12	7.14039	901.664
54	5.0119	5911.14	820.365	5967.79	7.90121	904.65
55	3.9811	5990.62	929.409	6062.28	8.8188	907.756
56	3.1623	6075.52	1062.8	6167.78	9.92245	910.927
57	2.5119	6165.15	1211.49	6283.06	11.1174	914.153
58	1.9953	6264.32	1411.73	6421.42	12.7	917.429
59	1.5849	6352.02	1622.3	6555.91	14.327	920.83
60	1.2589	6476.07	1911.49	6752.28	16.4446	924.287
61	1	6600.31	2253.9	6974.54	18.8542	930.684
62	0.79433	6752.28	2666.87	7259.86	21.552	934.49
63	0.63096	6926.63	3175.29	7619.76	24.6276	938.676
64	0.50119	7093.71	3788.41	8041.94	28.1045	943.192
65	0.39811	7315.12	4576.76	8628.89	32.0324	948.018
66	0.31623	7602.85	5479.94	9371.93	35.7831	953.604
67	0.25119	7903.44	6626.8	10314	39.9788	959.61
68	0.19953	8511.45	8179.55	11804.7	43.8608	966.421
69	0.15849	9032.34	9900.13	13401.3	47.6244	974.342
70	0.12589	9647.28	11899.8	15319.1	50.9681	983.569
71	0.1	10265.5	14311.4	17612.4	54.3484	994.41