File: data/20200619/Z_p55_1.txt
Index	Frequency (Hz)	Z' (Ω)	-Z'' (Ω)	Z (Ω)	-Phase (°)	Time (s)
1	1000000	2554.17	1803.36	3126.64	35.2238	139.75
2	794330	2820.06	1691.86	3288.64	30.9611	141.145
3	630960	3136.91	1619.62	3530.35	27.3077	142.59
4	501190	3436.99	1533.67	3763.64	24.0476	144.205
5	398110	3738.17	1434.37	4003.91	20.9923	149.286
6	316230	3993.82	1331.31	4209.86	18.4355	150.666
7	251190	4150.26	1175.75	4313.59	15.8172	154.711
8	199530	4354.72	1080.69	4486.81	13.9373	156.061
9	158490	4523.73	979.368	4628.53	12.2158	157.531
10	125890	4669.46	879.915	4751.64	10.6717	158.811
11	100000	4784.2	784.136	4848.03	9.30809	160.196
12	79433	4884.86	695.168	4934.07	8.09942	161.501
13	63096	4968.35	615.187	5006.29	7.0585	162.866
14	50119	5036.73	542.224	5065.83	6.14446	164.161
15	39811	5096.01	476.889	5118.27	5.34622	165.456
16	31623	5145.09	422.508	5162.41	4.69452	166.911
17	25119	5185.23	375.281	5198.79	4.13956	168.296
18	19953	5223.64	335.854	5234.42	3.67877	169.601
19	15849	5259.78	302.915	5268.5	3.29607	170.891
20	12589	5288.49	275.514	5295.66	2.98224	172.271
21	10000	5318.04	252.533	5324.04	2.71871	173.556
22	7943.3	5343.02	232.399	5348.08	2.49056	174.831
23	6309.6	5370.68	217.389	5375.08	2.3179	176.126
24	5011.9	5393.86	204.828	5397.75	2.17472	177.496
25	3981.1	5419.33	195.35	5422.85	2.06445	178.761
26	3162.3	5438.22	188.026	5441.47	1.98021	180.026
27	2511.9	5462.52	182.415	5465.57	1.91262	181.356
28	1995.3	5483.67	178.626	5486.58	1.8657	182.806
29	1584.9	5503.35	177.159	5506.2	1.84378	184.061
30	1258.9	5523.16	175.247	5525.94	1.81736	185.316
31	1000	5548.07	177.213	5550.9	1.82948	186.706
32	794.33	5570.62	179.395	5573.51	1.8445	188.191
33	630.96	5591.17	183.088	5594.16	1.87554	189.496
34	501.19	5616.97	188.85	5620.15	1.92564	190.936
35	398.11	5638.98	196.218	5642.4	1.9929	192.296
36	316.23	5662.2	205.086	5665.91	2.07436	193.516
37	251.19	5689.88	217.661	5694.04	2.19073	194.846
38	199.53	5716.86	232.065	5721.56	2.32454	196.171
39	158.49	5748.31	250.12	5753.75	2.49148	197.446
40	125.89	5776.37	271.505	5782.74	2.69108	198.831
41	100	5808.37	295.083	5815.86	2.9083	200.176
42	79.433	5844.91	324.064	5853.88	3.17345	201.697
43	63.096	5885.45	354.427	5896.11	3.44624	203.272
44	50.119	5913.62	379.826	5925.8	3.67501	204.797
45	39.811	5975.13	431.568	5990.69	4.13116	213.942
46	31.623	6032.48	475.8	6051.22	4.50975	215.547
47	25.119	6088.73	527.986	6111.58	4.95602	217.292
48	19.953	6151.55	589.293	6179.71	5.472	219.157
49	15.849	6220.72	654.644	6255.07	6.00747	221.092
50	12.589	6295.89	733.121	6338.43	6.64186	223.212
51	10	6380.96	818.862	6433.29	7.31273	225.557
52	7.9433	6470.32	920.115	6535.41	8.09351	227.827
53	6.3096	6569.92	1036.22	6651.13	8.96294	230.252
54	5.0119	6672.87	1171.65	6774.95	9.95869	232.577
55	3.9811	6794.89	1329.63	6923.76	11.0718	235.007
56	3.1623	6930.96	1513.91	7094.37	12.3215	237.542
57	2.5119	7073.99	1729.97	7282.45	13.7422	240.132
58	1.9953	7240.21	2009.44	7513.88	15.5114	242.712
59	1.5849	7401.4	2297.05	7749.65	17.2419	245.457
60	1.2589	7646.81	2660.04	8096.26	19.1809	248.267
61	1	7837.11	3087.16	8423.23	21.5002	253.307
62	0.79433	8100.36	3603	8865.52	23.9793	256.413
63	0.63096	8402.99	4205.58	9396.65	26.5874	259.978
64	0.50119	8708.46	4931.7	10007.9	29.5234	263.858
65	0.39811	9092.49	5815.3	10793.1	32.6019	268.063
66	0.31623	9491.48	6900.17	11734.6	36.0166	272.788
67	0.25119	10071.2	8170.57	12968.7	39.0517	278.278
68	0.19953	10683.6	9717.93	14442.2	42.29	284.478
69	0.15849	11388.7	11517	16197	45.321	291.783
70	0.12589	12103.9	13716.8	18293.6	48.5745	300.368
71	0.1	13201.1	16489.2	21122.6	51.3197	310.559