File: data/20200619/Z_p52_2.txt
Index	Frequency (Hz)	Z' (Ω)	-Z'' (Ω)	Z (Ω)	-Phase (°)	Time (s)
1	1000000	2385.84	1416.45	2774.63	30.6972	422.742
2	794330	2559.86	1298.95	2870.56	26.9046	424.202
3	630960	2788.84	1209.44	3039.8	23.4451	425.632
4	501190	3006.46	1113.07	3205.88	20.3158	427.152
5	398110	3204.31	989.798	3353.7	17.1657	431.353
6	316230	3375.51	889.041	3490.63	14.7554	432.713
7	251190	3452.82	754.108	3534.21	12.3202	436.848
8	199530	3576.25	673.225	3639.06	10.6611	438.133
9	158490	3677.7	595.77	3725.64	9.20172	439.423
10	125890	3755.94	520.922	3791.9	7.89613	440.733
11	100000	3817.45	452.81	3844.21	6.76458	442.173
12	79433	3868.74	393.052	3888.66	5.80117	443.513
13	63096	3909.49	340.309	3924.28	4.97487	444.933
14	50119	3941.42	294.677	3952.42	4.27572	446.298
15	39811	3968.49	256.548	3976.77	3.69882	447.623
16	31623	3992.75	222.654	3998.95	3.19178	448.983
17	25119	4011.35	197.34	4016.2	2.81641	450.358
18	19953	4031.11	175.88	4034.95	2.49827	451.693
19	15849	4043.74	158.475	4046.84	2.24429	453.013
20	12589	4061.71	143.732	4064.25	2.02669	454.308
21	10000	4074.72	132.232	4076.87	1.8587	455.678
22	7943.3	4091.34	123.347	4093.19	1.72686	457.053
23	6309.6	4101.11	115.53	4102.74	1.61361	458.403
24	5011.9	4114.92	109.725	4116.38	1.52744	459.763
25	3981.1	4128.22	105.617	4129.57	1.46554	461.033
26	3162.3	4140.98	102.177	4142.24	1.41346	462.333
27	2511.9	4152.14	99.5585	4153.33	1.37355	463.648
28	1995.3	4165.79	97.6578	4166.93	1.34293	464.963
29	1584.9	4175.57	96.7661	4176.69	1.32756	466.248
30	1258.9	4191.55	96.197	4192.65	1.31472	467.443
31	1000	4203.16	95.6877	4204.25	1.30415	468.743
32	794.33	4214.44	95.8375	4215.53	1.3027	470.143
33	630.96	4227.08	96.3705	4228.18	1.30603	471.418
34	501.19	4238.35	97.8291	4239.48	1.32226	472.708
35	398.11	4253.1	100.696	4254.29	1.35628	473.978
36	316.23	4265.4	103.464	4266.65	1.38952	475.288
37	251.19	4278.31	107.811	4279.67	1.44352	476.633
38	199.53	4293.27	113.681	4294.77	1.51678	477.953
39	158.49	4305.38	120.932	4307.08	1.60893	479.298
40	125.89	4321.86	129.607	4323.81	1.71771	480.683
41	100	4336.22	139.955	4338.48	1.84863	482.034
42	79.433	4352.81	152.448	4355.48	2.00584	483.414
43	63.096	4373.66	167.009	4376.85	2.18678	484.919
44	50.119	4391.14	185.172	4395.04	2.4147	486.449
45	39.811	4412.23	202.974	4416.89	2.63391	495.694
46	31.623	4437.54	225.388	4443.26	2.90763	497.339
47	25.119	4462.17	250.871	4469.22	3.21788	498.934
48	19.953	4494.07	281.929	4502.91	3.58965	500.759
49	15.849	4523.01	314.799	4533.95	3.98134	502.754
50	12.589	4561.64	351.77	4575.18	4.40963	504.774
51	10	4599.65	396.816	4616.73	4.93075	507.064
52	7.9433	4638.62	447.442	4660.15	5.50971	509.394
53	6.3096	4686.33	505.317	4713.5	6.1543	511.779
54	5.0119	4734.12	577.393	4769.2	6.95368	514.169
55	3.9811	4790.67	656.78	4835.48	7.80634	516.634
56	3.1623	4843.2	753.389	4901.45	8.84184	519.164
57	2.5119	4910.06	871.062	4986.72	10.0598	521.744
58	1.9953	4986.53	1013.98	5088.57	11.494	524.339
59	1.5849	5060.34	1179.18	5195.91	13.1172	527.104
60	1.2589	5133.85	1387.47	5318.04	15.1234	529.964
61	1	5238.28	1622.93	5483.93	17.2141	535.134
62	0.79433	5358.36	1914.7	5690.17	19.6633	538.28
63	0.63096	5468.63	2278.82	5924.44	22.6219	541.8
64	0.50119	5609.72	2713.29	6231.45	25.8119	545.63
65	0.39811	5760.68	3266.36	6622.28	29.5537	549.84
66	0.31623	5943.83	3902.39	7110.4	33.2867	554.595
67	0.25119	6137.69	4745.54	7758.31	37.7105	560.095
68	0.19953	6371.08	5721.24	8562.9	41.9239	566.39
69	0.15849	6675.22	6940.7	9629.74	46.117	573.67
70	0.12589	7089.85	8376.7	10974.3	49.7562	582.25
71	0.1	7402.72	10126.3	12543.6	53.8319	592.471