File: data/20200619/Z_p50_1.txt
Index	Frequency (Hz)	Z' (Ω)	-Z'' (Ω)	Z (Ω)	-Phase (°)	Time (s)
1	1000000	2394.8	1636.93	2900.79	34.354	21.2861
2	794330	2650.96	1535.18	3063.4	30.0753	22.7012
3	630960	2930.9	1467.55	3277.79	26.5978	24.2012
4	501190	3205.92	1383.47	3491.69	23.3419	25.8462
5	398110	3466.23	1283.88	3696.37	20.3245	30.0863
6	316230	3690.53	1192.21	3878.32	17.9029	31.4813
7	251190	3819.39	1038.77	3958.13	15.2149	35.7714
8	199530	3999.94	949.975	4111.2	13.3601	37.1114
9	158490	4150.57	859.286	4238.58	11.6966	38.4965
10	125890	4272.71	766.763	4340.97	10.1738	39.8265
11	100000	4370.02	679.05	4422.46	8.83246	41.3065
12	79433	4455.66	600.965	4496.01	7.68151	42.7365
13	63096	4522.72	530.43	4553.72	6.68916	44.1416
14	50119	4581.26	468.897	4605.19	5.84394	45.5266
15	39811	4631.08	414.321	4649.58	5.11238	47.0066
16	31623	4672	368.291	4686.49	4.50727	48.3867
17	25119	4708.12	330.099	4719.68	4.0106	49.7067
18	19953	4741.46	297.834	4750.81	3.5943	51.0767
19	15849	4771.88	271.81	4779.61	3.26009	52.5517
20	12589	4802.09	250.402	4808.61	2.98494	53.9268
21	10000	4825.71	230.274	4831.21	2.73197	55.2668
22	7943.3	4854.18	217.816	4859.07	2.56924	56.6268
23	6309.6	4877.71	206.488	4882.08	2.42406	58.0318
24	5011.9	4901.89	197.778	4905.88	2.31047	59.3719
25	3981.1	4925.05	191.437	4928.77	2.22597	60.7319
26	3162.3	4947.46	185.86	4950.95	2.1514	62.1469
27	2511.9	4969.72	182.827	4973.08	2.10686	63.5569
28	1995.3	4993.72	181.045	4997	2.07632	65.627
29	1584.9	5014.95	180.747	5018.2	2.06415	66.842
30	1258.9	5041.42	181.071	5044.68	2.05698	68.217
31	1000	5061.61	182.175	5064.89	2.06127	69.582
32	794.33	5086.81	184.793	5090.16	2.08052	71.0271
33	630.96	5110.51	188.409	5113.98	2.11137	72.3321
34	501.19	5134.49	192.966	5138.12	2.1523	73.6721
35	398.11	5160.25	198.504	5164.07	2.20296	75.0221
36	316.23	5189.16	207.074	5193.29	2.28518	76.3922
37	251.19	5214.6	216.719	5219.1	2.37985	77.7922
38	199.53	5241.51	229.012	5246.51	2.50178	79.1372
39	158.49	5272.76	242.674	5278.34	2.63513	80.6372
40	125.89	5300.34	260.578	5306.74	2.81454	82.1173
41	100	5335.4	280.146	5342.75	3.00567	83.4673
42	79.433	5368.07	302.482	5376.59	3.22512	84.8623
43	63.096	5404.6	328.651	5414.58	3.47985	86.6774
44	50.119	5457.71	351.313	5469.01	3.68304	88.1474
45	39.811	5489.78	392.523	5503.79	4.08973	97.3576
46	31.623	5540.53	431.664	5557.32	4.45492	99.0276
47	25.119	5593.89	477.531	5614.24	4.87931	100.623
48	19.953	5651.92	528.119	5676.54	5.33825	102.488
49	15.849	5719.62	582.376	5749.19	5.81386	104.623
50	12.589	5789.93	645.146	5825.76	6.35799	106.693
51	10	5872.28	717.332	5915.93	6.9645	108.963
52	7.9433	5959.58	796.72	6012.6	7.61456	111.473
53	6.3096	6052.53	887.408	6117.24	8.34115	113.833
54	5.0119	6153.98	982.673	6231.94	9.07245	116.218
55	3.9811	6268.64	1099.42	6364.32	9.9476	118.633
56	3.1623	6391.14	1240.57	6510.42	10.9849	121.188
57	2.5119	6528.89	1384.61	6674.1	11.9735	123.823
58	1.9953	6682.94	1549.43	6860.21	13.0533	126.633
59	1.5849	6838.65	1762.23	7062.05	14.45	129.333
60	1.2589	7041.46	2037.06	7330.19	16.1349	132.273
61	1	7206.93	2303.88	7566.22	17.7278	137.603
62	0.79433	7436.44	2650.13	7894.55	19.6146	140.803
63	0.63096	7688.16	3031.14	8264.12	21.5174	144.383
64	0.50119	7958.79	3509.23	8698.11	23.7939	148.329
65	0.39811	8286.6	4066.24	9230.5	26.1372	152.524
66	0.31623	8655.67	4766.41	9881.26	28.8402	157.249
67	0.25119	9161	5525.1	10698.2	31.0946	162.924
68	0.19953	9693.14	6461.98	11649.6	33.6896	169.229
69	0.15849	10329.3	7500.99	12765.5	35.9867	176.554
70	0.12589	10984.8	8699.52	14012.4	38.3778	185.234
71	0.1	11852.7	10288.9	15695.5	40.9602	195.424