File: data/20200619/Z_p54_2.txt
Index	Frequency (Hz)	Z' (Ω)	-Z'' (Ω)	Z (Ω)	-Phase (°)	Time (s)
1	1000000	2555.98	1881.96	3174.09	36.3641	388.147
2	794330	2836.19	1760.27	3338.04	31.8256	389.537
3	630960	3164.11	1678.58	3581.79	27.9463	390.987
4	501190	3490.87	1592.11	3836.79	24.5168	392.492
5	398110	3802.51	1484.52	4082.02	21.3259	397.502
6	316230	4069.63	1368.35	4293.52	18.5844	398.797
7	251190	4221	1204.69	4389.55	15.929	402.867
8	199530	4426.85	1102.68	4562.12	13.9872	404.152
9	158490	4599.93	996.289	4706.58	12.2208	405.537
10	125890	4745.44	891.313	4828.42	10.6377	406.817
11	100000	4860.54	790.181	4924.35	9.23383	408.187
12	79433	4959.43	699.335	5008.5	8.02642	409.437
13	63096	5038.23	615.284	5075.66	6.96265	410.792
14	50119	5105.73	541.766	5134.4	6.05695	412.192
15	39811	5166.41	475.8	5188.27	5.26181	413.592
16	31623	5213.34	416.427	5229.94	4.56693	414.902
17	25119	5255.98	372.073	5269.14	4.04923	416.167
18	19953	5294.23	332.758	5304.68	3.59648	417.427
19	15849	5326.56	298.369	5334.91	3.20609	418.677
20	12589	5357.92	270.717	5364.76	2.8925	420.027
21	10000	5382.39	246.547	5388.04	2.62267	421.317
22	7943.3	5412.14	226.929	5416.89	2.40098	422.657
23	6309.6	5433.33	211.221	5437.44	2.22625	423.987
24	5011.9	5456.27	198.411	5459.87	2.08258	425.257
25	3981.1	5478.8	187.853	5482.02	1.96374	426.527
26	3162.3	5501.85	179.18	5504.77	1.8653	427.897
27	2511.9	5521.33	172.777	5524.03	1.79235	429.253
28	1995.3	5541.89	167.974	5544.44	1.73609	430.533
29	1584.9	5560.96	164.973	5563.41	1.69925	431.753
30	1258.9	5584.92	162.73	5587.29	1.66898	432.983
31	1000	5602.1	162.193	5604.44	1.65837	434.278
32	794.33	5625.3	161.932	5627.63	1.64889	435.673
33	630.96	5644.54	162.493	5646.88	1.64896	436.958
34	501.19	5669.51	165.292	5671.92	1.66996	438.313
35	398.11	5688.46	168.679	5690.96	1.69849	439.593
36	316.23	5714.33	174.27	5716.99	1.74681	440.868
37	251.19	5732.66	180.498	5735.5	1.80342	442.183
38	199.53	5759.08	189.971	5762.21	1.88929	443.393
39	158.49	5781.37	199.733	5784.82	1.97865	444.738
40	125.89	5808.7	212.228	5812.57	2.09245	446.108
41	100	5835.92	227.367	5840.35	2.23111	447.658
42	79.433	5862.29	243.121	5867.33	2.37481	449.028
43	63.096	5895.92	262.752	5901.77	2.55171	450.448
44	50.119	5931.2	269.218	5937.3	2.59888	451.838
45	39.811	5966.45	308.533	5974.42	2.96021	460.878
46	31.623	6000.6	335.754	6009.99	3.20256	462.463
47	25.119	6043.62	369.693	6054.92	3.50047	464.088
48	19.953	6085.62	407.868	6099.27	3.83432	465.928
49	15.849	6134.12	450.343	6150.63	4.1989	467.823
50	12.589	6184.49	496.788	6204.41	4.59259	469.768
51	10	6242.6	553.919	6267.12	5.0707	472.043
52	7.9433	6299.58	620.721	6330.09	5.6274	474.303
53	6.3096	6367.38	696.272	6405.33	6.24049	476.728
54	5.0119	6436.93	788.272	6485.02	6.98172	479.053
55	3.9811	6510.6	892.678	6571.51	7.80723	481.488
56	3.1623	6595.51	1016.22	6673.34	8.75913	483.964
57	2.5119	6693.39	1167.4	6794.44	9.89352	486.519
58	1.9953	6799.75	1346.33	6931.75	11.1996	489.154
59	1.5849	6918.01	1550.03	7089.53	12.629	491.889
60	1.2589	7052.75	1814.5	7282.43	14.4279	494.739
61	1	7175.91	2124.61	7483.82	16.4927	499.689
62	0.79433	7351.91	2486.88	7761.13	18.6888	502.754
63	0.63096	7539.87	2935.3	8091.09	21.2711	506.194
64	0.50119	7737.23	3450.73	8471.85	24.0364	510.019
65	0.39811	7987.49	4107.07	8981.54	27.2116	514.264
66	0.31623	8238.68	4875.43	9573.17	30.6159	518.994
67	0.25119	8619.52	5846.76	10415.4	34.1497	524.384
68	0.19953	8984.78	6997.92	11388.5	37.9137	530.644
69	0.15849	9459.11	8337.19	12608.9	41.3927	537.93
70	0.12589	9879.46	9914.66	13996.6	45.1019	546.42
71	0.1	10487.4	12082	15998.8	49.0414	556.585