File: data/20200619/Z_p50_3.txt
Index	Frequency (Hz)	Z' (Ω)	-Z'' (Ω)	Z (Ω)	-Phase (°)	Time (s)
1	1000000	2407.9	1656.24	2922.51	34.5216	440.699
2	794330	2638.95	1535.08	3052.95	30.1866	442.86
3	630960	2929.61	1467.35	3276.55	26.6049	445.171
4	501190	3197.5	1380.81	3482.91	23.3566	447.507
5	398110	3464.06	1282.59	3693.88	20.3175	455.446
6	316230	3685.71	1192.01	3873.67	17.922	457.482
7	251190	3820.03	1037.87	3958.51	15.1998	465.231
8	199530	3998.16	950.806	4109.66	13.3771	467.407
9	158490	4147.03	854.721	4234.19	11.6458	469.573
10	125890	4268.42	765.108	4336.45	10.1623	471.759
11	100000	4369.07	678.864	4421.5	8.83195	473.975
12	79433	4452.23	600.462	4492.54	7.68101	476.066
13	63096	4519.65	530.28	4550.65	6.69179	478.517
14	50119	4579.43	467.621	4603.24	5.83046	480.758
15	39811	4628.79	414.886	4647.35	5.12182	482.949
16	31623	4669.42	366.131	4683.75	4.48342	485.37
17	25119	4707.26	330.521	4718.85	4.01644	487.706
18	19953	4740.3	298.032	4749.66	3.59756	489.877
19	15849	4771.38	270.913	4779.07	3.24969	492.023
20	12589	4801.58	249.927	4808.08	2.97962	494.14
21	10000	4825.18	232.132	4830.76	2.75429	496.451
22	7943.3	4854.25	217.188	4859.11	2.56181	498.727
23	6309.6	4877.54	205.996	4881.89	2.41837	500.913
24	5011.9	4900.9	197.756	4904.89	2.31068	503.059
25	3981.1	4921.39	190.654	4925.08	2.21852	505.245
26	3162.3	4945.78	186.465	4949.3	2.15913	507.431
27	2511.9	4969.06	182.679	4972.42	2.10544	509.552
28	1995.3	4992.36	180.579	4995.63	2.07154	511.648
29	1584.9	5015.87	180.51	5019.12	2.06105	513.649
30	1258.9	5036.52	180.355	5039.74	2.05085	515.75
31	1000	5062.89	182.089	5066.17	2.05978	517.931
32	794.33	5086.5	184.73	5089.86	2.07994	520.227
33	630.96	5112.89	188.117	5116.35	2.10711	522.418
34	501.19	5136.53	192.346	5140.13	2.14453	524.579
35	398.11	5162.22	199.386	5166.07	2.21189	526.57
36	316.23	5185.52	206.936	5189.65	2.28526	528.646
37	251.19	5213.18	216.099	5217.66	2.3737	530.792
38	199.53	5243.62	228.388	5248.59	2.49396	532.948
39	158.49	5270.2	242.226	5275.76	2.63154	535.089
40	125.89	5303.5	258.547	5309.8	2.79097	537.285
41	100	5335.17	279.5	5342.49	2.99888	539.361
42	79.433	5371.39	302.158	5379.88	3.21968	541.617
43	63.096	5406.92	327.508	5416.83	3.46629	544.163
44	50.119	5460.93	359.359	5472.74	3.76494	546.474
45	39.811	5491.92	392.235	5505.91	4.08515	556.496
46	31.623	5540.58	429.533	5557.2	4.43298	559.042
47	25.119	5594.12	474.372	5614.2	4.84699	561.648
48	19.953	5653.06	525.016	5677.39	5.306	564.419
49	15.849	5719.08	580.842	5748.5	5.7992	567.195
50	12.589	5789.04	642.008	5824.53	6.32828	570.086
51	10	5869.42	713.084	5912.58	6.92699	573.152
52	7.9433	5957.99	791.967	6010.4	7.57166	576.203
53	6.3096	6052.36	880.647	6116.09	8.27871	579.299
54	5.0119	6157.07	980.264	6234.62	9.04611	582.555
55	3.9811	6268.68	1092.96	6363.24	9.89025	585.811
56	3.1623	6397.27	1221.27	6512.8	10.808	589.257
57	2.5119	6522.94	1377.72	6666.84	11.9263	592.683
58	1.9953	6665.34	1566.14	6846.86	13.2228	596.149
59	1.5849	6829.8	1767.15	7054.72	14.5066	599.61
60	1.2589	7028.89	2020.9	7313.64	16.0407	603.317
61	1	7198.46	2292.47	7554.68	17.665	609.809
62	0.79433	7436.89	2631.4	7888.7	19.4853	613.56
63	0.63096	7672.94	3030.25	8249.63	21.5504	617.696
64	0.50119	7966.07	3494.01	8698.64	23.6828	622.147
65	0.39811	8288.05	4053.53	9226.21	26.0624	627.103
66	0.31623	8690.58	4737.7	9898.08	28.5972	632.589
67	0.25119	9141.44	5489.23	10662.9	30.9839	638.715
68	0.19953	9627.61	6455.44	11591.5	33.8424	645.776
69	0.15849	10228	7474.78	12668.2	36.1599	653.722
70	0.12589	10948.1	8757.24	14019.6	38.6559	662.884
71	0.1	11904.3	10204.4	15679.4	40.6034	673.68