File: data/20200619/Z_p53_2.txt
Index	Frequency (Hz)	Z' (Ω)	-Z'' (Ω)	Z (Ω)	-Phase (°)	Time (s)
1	1000000	2642.77	1730.35	3158.86	33.2147	456.927
2	794330	2881.15	1585.36	3288.53	28.8219	458.317
3	630960	3175.06	1493.78	3508.9	25.1957	459.732
4	501190	3451.3	1389.73	3720.59	21.9331	461.177
5	398110	3712.54	1261.93	3921.15	18.7735	466.147
6	316230	3933.59	1159.09	4100.81	16.4184	467.447
7	251190	4044.63	992.164	4164.54	13.7827	471.607
8	199530	4214.3	895.3	4308.35	11.9938	472.857
9	158490	4351.21	801.511	4424.41	10.4371	474.157
10	125890	4462.86	706.842	4518.49	8.99993	475.427
11	100000	4551.2	619.656	4593.19	7.75326	476.852
12	79433	4623.78	542.403	4655.49	6.69063	478.137
13	63096	4682.41	474.485	4706.39	5.78623	479.427
14	50119	4733.23	412.691	4751.19	4.98302	480.807
15	39811	4773.66	359.24	4787.16	4.30366	482.097
16	31623	4808.6	315.037	4818.9	3.7484	483.453
17	25119	4836.58	277.957	4844.56	3.28915	484.748
18	19953	4865.91	248.293	4872.24	2.9211	486.018
19	15849	4888.07	223.44	4893.17	2.61725	487.323
20	12589	4909.93	200.747	4914.03	2.34129	488.608
21	10000	4930.01	185.766	4933.51	2.15792	489.903
22	7943.3	4951.47	171.15	4954.43	1.97966	491.203
23	6309.6	4968.69	158.566	4971.22	1.82786	492.508
24	5011.9	4984.81	150.757	4987.09	1.73228	493.778
25	3981.1	5003.04	144.861	5005.14	1.65852	495.163
26	3162.3	5018.98	139.417	5020.92	1.59115	496.478
27	2511.9	5037.09	136.282	5038.93	1.5498	497.858
28	1995.3	5051.01	133.493	5052.77	1.51392	499.218
29	1584.9	5067.29	132.545	5069.02	1.49835	500.543
30	1258.9	5084.27	132.551	5085.99	1.4934	501.813
31	1000	5098.27	132.862	5100	1.49281	503.133
32	794.33	5116.78	134.46	5118.55	1.50529	504.553
33	630.96	5131.99	137.053	5133.82	1.52976	505.903
34	501.19	5151.37	140.698	5153.29	1.56452	507.178
35	398.11	5168.42	145.58	5170.47	1.61344	508.463
36	316.23	5189.45	152.16	5191.68	1.67949	509.758
37	251.19	5206.98	160.623	5209.45	1.76688	511.113
38	199.53	5226.56	170.523	5229.34	1.86868	512.308
39	158.49	5249.02	184.302	5252.26	2.01092	513.663
40	125.89	5270.53	200.2	5274.34	2.17532	515.038
41	100	5295.9	218.712	5300.42	2.36487	516.398
42	79.433	5323.52	239.102	5328.88	2.57167	517.778
43	63.096	5351.53	264.192	5358.05	2.82626	519.233
44	50.119	5387.96	269.037	5394.67	2.85858	520.568
45	39.811	5420.78	321.599	5430.31	3.39522	529.653
46	31.623	5460.43	357.895	5472.14	3.74999	531.258
47	25.119	5501.78	396.701	5516.07	4.12412	532.913
48	19.953	5555.67	439.614	5573.04	4.52432	534.808
49	15.849	5609.23	489.045	5630.51	4.98278	536.739
50	12.589	5665.84	547.253	5692.21	5.51698	538.759
51	10	5729.75	604.779	5761.58	6.0253	540.999
52	7.9433	5791	668.877	5829.5	6.58863	543.324
53	6.3096	5855.96	740.99	5902.65	7.21166	545.634
54	5.0119	5926.33	832.874	5984.57	7.99984	548.154
55	3.9811	6005.19	942.758	6078.74	8.92207	550.689
56	3.1623	6081.97	1068.44	6175.11	9.96371	553.254
57	2.5119	6171.61	1221.87	6291.4	11.1988	555.749
58	1.9953	6252.07	1406.99	6408.43	12.6827	558.424
59	1.5849	6340.67	1631.82	6547.28	14.4323	561.099
60	1.2589	6451.27	1913.09	6728.95	16.5174	563.899
61	1	6591.17	2258.03	6967.22	18.9106	568.909
62	0.79433	6749.14	2679.65	7261.64	21.6548	572.029
63	0.63096	6915.34	3173.78	7608.87	24.6526	575.524
64	0.50119	7092.02	3814.35	8052.7	28.273	579.269
65	0.39811	7306.23	4577.25	8621.61	32.0666	583.474
66	0.31623	7696.7	5573.22	9502.63	35.9085	588.179
67	0.25119	8027.2	6811.42	10527.7	40.316	593.575
68	0.19953	8452.76	8184.53	11765.9	44.0763	599.84
69	0.15849	8942.3	9877.05	13323.7	47.8435	607.07
70	0.12589	9638.24	11827.9	15257.6	50.8244	615.535
71	0.1	10157.8	13989.4	17288.2	54.0163	625.805