File: data/20200503/Z_p19_2.txt
Index	Frequency (Hz)	Z' (Ω)	-Z'' (Ω)	Z (Ω)	-Phase (°)	Time (s)
1	1000000	2826.8	9471.03	9883.89	73.3813	74.2641
2	794330	5233	10646.4	11863	63.8245	75.6492
3	630960	7955.33	12393	14726.6	57.3027	76.9992
4	501190	10506.6	13939.2	17455.3	52.993	78.5442
5	398110	14382.4	17587	22719	50.7242	80.0042
6	316230	17854.1	19109.7	26152.4	46.9455	81.3893
7	251190	21199.8	19842.7	29037.3	43.1063	87.7894
8	199530	25118.4	20726.2	32565.4	39.5274	89.8844
9	158490	29110.3	21139.6	35976.3	35.9867	91.8595
10	125890	33119.9	21099.9	39270	32.5002	93.9795
11	100000	36972	20619.1	42332.9	29.1481	95.5895
12	79433	40625.4	19809.4	45197.7	25.9943	97.3196
13	63096	43958.8	18696	47769.4	23.0404	98.9096
14	50119	47044.7	17381.8	50153.1	20.2779	100.57
15	39811	49722.6	15857.5	52190	17.6885	102.21
16	31623	51853.2	14192.8	53760.5	15.3076	103.845
17	25119	53617.5	12927.5	55153.9	13.5556	105.675
18	19953	55259.8	11694.3	56483.6	11.9489	107.39
19	15849	56678.1	10555.4	57652.6	10.5496	109.86
20	12589	57883.9	9569.81	58669.6	9.38766	111.355
21	10000	58857	8612.85	59483.9	8.32529	112.895
22	7943.3	59838.7	7894.03	60357.1	7.51517	114.335
23	6309.6	60708.3	7288.28	61144.2	6.84583	115.74
24	5011.9	61560	6798.32	61934.2	6.30187	117.18
25	3981.1	62325.2	6393.06	62652.2	5.85668	118.725
26	3162.3	63066.1	6075.69	63358.1	5.5028	120.22
27	2511.9	63762.9	5821.81	64028.1	5.21687	121.845
28	1995.3	64486.7	5636.62	64732.6	4.99538	123.355
29	1584.9	65190.2	5501.92	65422	4.82421	124.895
30	1258.9	65896.6	5412.11	66118.5	4.69518	126.34
31	1000	66594.9	5347.44	66809.3	4.59089	127.945
32	794.33	67328.9	5315.78	67538.4	4.51427	129.605
33	630.96	68041.4	5304.84	68247.8	4.45804	130.82
34	501.19	68795.4	5313.37	69000.3	4.41644	132.24
35	398.11	69545	5326.75	69748.7	4.37998	133.61
36	316.23	70365.1	5356.79	70568.7	4.35345	135.03
37	251.19	71129.1	5390.71	71333.1	4.33402	136.47
38	199.53	71925.1	5414.66	72128.6	4.30522	137.85
39	158.49	72692.8	5434.18	72895.7	4.27522	139.225
40	125.89	73487.8	5441.28	73689	4.23464	140.675
41	100	74298.4	5443.06	74497.5	4.18997	142.075
42	79.433	75105.2	5447.27	75302.5	4.14831	143.52
43	63.096	75943.7	5437.05	76138.1	4.09499	145.105
44	50.119	76729.9	5407.94	76920.2	4.03155	146.7
45	39.811	77524.5	5377.83	77710.8	3.96821	155.856
46	31.623	78334.8	5332.44	78516.1	3.89425	157.461
47	25.119	79145.6	5279.28	79321.4	3.81617	159.036
48	19.953	79902	5239.58	80073.6	3.7518	160.931
49	15.849	80691.6	5185.11	80858.1	3.67668	162.841
50	12.589	81464.5	5121.62	81625.3	3.59741	164.956
51	10	82239.5	5046.48	82394.2	3.51145	167.151
52	7.9433	82940	4955.62	83087.9	3.41932	169.481
53	6.3096	83687.8	4880.01	83830	3.33726	171.936
54	5.0119	84404.9	4789.36	84540.7	3.24764	174.331
55	3.9811	85049.5	4707.05	85179.6	3.1678	176.771
56	3.1623	85692.6	4626.84	85817.4	3.0906	179.261
57	2.5119	86315.9	4575.79	86437.1	3.03453	181.806
58	1.9953	86846.6	4538.92	86965.1	2.99176	184.541
59	1.5849	87425.7	4534.9	87543.2	2.96936	187.381
60	1.2589	88026.9	4617.58	88147.9	3.00278	190.341
61	1	88579.2	4729.05	88705.3	3.056	195.386
62	0.79433	89105.5	4908.15	89240.5	3.15281	198.461
63	0.63096	89591.6	5151.08	89739.5	3.29061	201.917
64	0.50119	90162.2	5533.95	90331.9	3.51227	205.692
65	0.39811	90728.4	6040.08	90929.3	3.80874	209.962
66	0.31623	91323.1	6609.67	91562	4.13966	214.607
67	0.25119	92051.7	7392.26	92348	4.59131	220.002
68	0.19953	92751.8	8233.82	93116.5	5.073	226.242
69	0.15849	93555.6	9289.97	94015.7	5.67082	233.552
70	0.12589	94488.3	10361.4	95054.7	6.25793	242.057
71	0.1	95210.4	11960.1	95958.7	7.15986	252.242