File: data/20200503/Z_p19_1.txt
Index	Frequency (Hz)	Z' (Ω)	-Z'' (Ω)	Z (Ω)	-Phase (°)	Time (s)
1	1000000	2515.66	9420.31	9750.43	75.0483	52.7207
2	794330	5011.79	10736.5	11848.6	64.9768	54.5758
3	630960	7709.65	12622.7	14790.9	58.5844	56.0358
4	501190	10332.8	14310.2	17650.8	54.1686	57.6508
5	398110	14525.6	18151.9	23248.3	51.3323	59.0959
6	316230	17942.7	19620.2	26587.5	47.557	60.5009
7	251190	21408.2	20516.4	29651.9	43.7813	64.471
8	199530	25495.4	21373.8	33269.4	39.9745	65.711
9	158490	29206.1	22292.4	36741.6	37.3537	67.056
10	125890	33765.2	21728.7	40152.5	32.7622	68.296
11	100000	37714.3	21197.2	43263.1	29.3381	69.6511
12	79433	41526.6	20388.6	46261.8	26.15	70.9411
13	63096	44931.2	19226.2	48871.9	23.1662	72.2811
14	50119	48056.4	17822.6	51254.8	20.3482	73.6411
15	39811	50844.5	16321.4	53399.9	17.797	74.9212
16	31623	53006.6	14600.7	54980.7	15.4003	76.1912
17	25119	54815.9	13288.7	56403.7	13.627	77.5862
18	19953	56544.3	12047.8	57813.5	12.028	78.8612
19	15849	57974.6	10849.3	58981.1	10.5997	80.1213
20	12589	59243.5	9826.95	60053	9.41812	81.4213
21	10000	60236	8845.73	60882	8.35425	82.7663
22	7943.3	61270.9	8113.68	61805.7	7.5434	84.0913
23	6309.6	62193.4	7493.59	62643.3	6.87036	85.3963
24	5011.9	63019.9	6976.32	63404.9	6.31693	86.6514
25	3981.1	63794.5	6556.2	64130.5	5.86772	88.0214
26	3162.3	64573.8	6229.72	64873.6	5.51052	89.3714
27	2511.9	65309.7	5965.19	65581.5	5.21874	90.7514
28	1995.3	66046	5783.77	66298.8	5.00473	92.1365
29	1584.9	66765.3	5640.34	67003.1	4.82889	93.4515
30	1258.9	67474	5550.54	67701.9	4.70267	94.7665
31	1000	68216.2	5475.93	68435.6	4.58948	96.1215
32	794.33	68963.2	5441.96	69177.6	4.51192	97.4916
33	630.96	69725.9	5434.46	69937.3	4.45665	98.8966
34	501.19	70474.7	5436.48	70684.1	4.41112	100.187
35	398.11	71218.6	5452.28	71427	4.37785	101.487
36	316.23	72065	5481.24	72273.2	4.34952	102.767
37	251.19	72845.7	5511.17	73053.8	4.3265	104.052
38	199.53	73621.6	5542.9	73830	4.30562	105.397
39	158.49	74458	5560.56	74665.4	4.27094	106.722
40	125.89	75264.3	5571.54	75470.3	4.23367	108.087
41	100	76072.2	5571.45	76276	4.1888	109.457
42	79.433	76909.9	5572.68	77111.5	4.14425	110.907
43	63.096	77773.1	5616.51	77975.6	4.13054	112.472
44	50.119	78559.8	5529.08	78754.1	4.02587	113.982
45	39.811	79417.3	5515.62	79608.6	3.97287	123.037
46	31.623	80246.1	5474.26	80432.6	3.90258	124.622
47	25.119	81037.3	5421.9	81218.5	3.82774	126.187
48	19.953	81889.2	5371.25	82065.2	3.75275	128.002
49	15.849	82662.9	5309.26	82833.2	3.67494	129.982
50	12.589	83421.8	5239.69	83586.2	3.594	132.052
51	10	84215.1	5155.42	84372.7	3.50312	134.287
52	7.9433	84967.7	5086.4	85119.8	3.42579	136.617
53	6.3096	85731.4	4989.81	85876.5	3.33102	138.997
54	5.0119	86482	4909.73	86621.2	3.24929	142.442
55	3.9811	87154.3	4813.64	87287.1	3.1613	144.892
56	3.1623	87811	4730.07	87938.3	3.08334	147.367
57	2.5119	88461.4	4668.14	88584.5	3.02072	150.008
58	1.9953	89045.8	4619.37	89165.6	2.96963	152.583
59	1.5849	89640.8	4618.35	89759.7	2.9493	155.268
60	1.2589	90174.8	4672.55	90295.8	2.96622	158.098
61	1	90745	4762.74	90869.9	3.0044	161.303
62	0.79433	91313.5	4969.82	91448.6	3.1153	164.538
63	0.63096	91800.2	5191.34	91946.8	3.23665	168.013
64	0.50119	92345.2	5572.55	92513.2	3.45331	171.963
65	0.39811	92898.1	6051.54	93095	3.72708	176.113
66	0.31623	93577.6	6689.79	93816.4	4.08907	180.883
67	0.25119	94158.9	7329.47	94443.7	4.45102	186.258
68	0.19953	94917	8168.88	95267.8	4.91895	192.543
69	0.15849	95748.1	9237.29	96192.6	5.51055	199.828
70	0.12589	96714.1	10473.8	97279.6	6.18087	208.364
71	0.1	97427.7	11783.5	98137.7	6.8962	218.489