File: data/20200503/Z_p18_1.txt
Index	Frequency (Hz)	Z' (Ω)	-Z'' (Ω)	Z (Ω)	-Phase (°)	Time (s)
1	1000000	2994.06	7735.15	8294.39	68.84	14.6051
2	794330	4764.12	8436.82	9689	60.5474	16.1251
3	630960	6781.94	9565.27	11725.6	54.6627	17.5751
4	501190	8814.8	10786.9	13930.5	50.7451	19.1501
5	398110	11415.3	13126.7	17396	48.9891	20.6652
6	316230	13879.7	14214.1	19866.7	45.682	22.1402
7	251190	16369.2	14738.3	22026.5	41.9989	25.3603
8	199530	19194.7	15397	24607	38.7347	26.7003
9	158490	22065.8	15768.7	27121	35.5504	28.9203
10	125890	25025.3	15762.7	29575.9	32.2056	30.2054
11	100000	28004.9	15620.4	32066.7	29.1516	31.6404
12	79433	30731.1	15078.8	34231.2	26.1358	32.9954
13	63096	33327.4	14407.1	36308.1	23.3783	34.3804
14	50119	35702.5	13506.6	38172	20.722	35.7455
15	39811	37861.5	12464.2	39860.4	18.2218	37.0605
16	31623	39609.3	11273.2	41182.4	15.8869	38.4055
17	25119	41063.2	10296.6	42334.5	14.0767	39.7155
18	19953	42411.5	9349.92	43429.9	12.4324	40.9955
19	15849	43592.9	8490.1	44412	11.0209	42.2456
20	12589	44636	7708.54	45296.7	9.79822	43.5206
21	10000	45417.3	6925.67	45942.3	8.67022	44.8506
22	7943.3	46223.2	6335.61	46655.4	7.80464	46.2256
23	6309.6	46960.7	5835.48	47321.9	7.08344	47.5057
24	5011.9	47592	5409.8	47898.5	6.48499	48.8657
25	3981.1	48223.5	5065.42	48488.8	5.99639	50.1807
26	3162.3	48791.1	4788.36	49025.5	5.60506	51.4407
27	2511.9	49341.8	4588.47	49554.7	5.31286	52.8608
28	1995.3	49899.6	4409.32	50094	5.04976	54.1908
29	1584.9	50447.9	4280.62	50629.2	4.85005	55.6908
30	1258.9	50989.2	4194.01	51161.4	4.70215	56.9558
31	1000	51528.7	4143.4	51695	4.59723	58.2759
32	794.33	52080.4	4112.05	52242.5	4.51447	60.7909
33	630.96	52653.4	4103.42	52813	4.45621	62.1059
34	501.19	53217.4	4102.43	53375.3	4.4081	63.436
35	398.11	53797.6	4117.05	53954.9	4.37623	64.686
36	316.23	54366.3	4139.06	54523.7	4.35369	65.951
37	251.19	54976.9	4169.31	55134.8	4.33686	67.351
38	199.53	55549.1	4193.59	55707.2	4.31726	68.7411
39	158.49	56188.4	4218.66	56346.5	4.29375	70.0911
40	125.89	56808.3	4241.09	56966.4	4.26956	71.5561
41	100	57421.7	4250.85	57578.8	4.23381	72.8911
42	79.433	58061.7	4260.59	58217.8	4.19687	74.2712
43	63.096	58663.1	4261.47	58817.7	4.15485	75.7512
44	50.119	59286.3	4247.95	59438.3	4.09832	85.7264
45	39.811	59884.3	4245.29	60034.5	4.055	94.8365
46	31.623	60501.9	4231.24	60649.7	4.0005	96.4766
47	25.119	61135.3	4209.73	61280	3.93913	98.1566
48	19.953	61776.6	4212.56	61920	3.90098	100.067
49	15.849	62373.1	4193.58	62514	3.84642	101.977
50	12.589	62978.8	4172.07	63116.9	3.79005	103.992
51	10	63567.1	4156.63	63702.8	3.74123	106.292
52	7.9433	64163	4153.19	64297.2	3.70352	109.542
53	6.3096	64790.6	4143.77	64923	3.65944	111.777
54	5.0119	65308.9	4155.09	65441	3.64037	114.282
55	3.9811	65897.9	4178.02	66030.2	3.62778	116.627
56	3.1623	66395.8	4215.87	66529.5	3.63318	119.242
57	2.5119	66939.9	4298.9	67077.8	3.67451	121.857
58	1.9953	67457.3	4417.29	67601.8	3.74653	124.412
59	1.5849	67977.1	4581.06	68131.2	3.8554	127.157
60	1.2589	68476	4804.84	68644.4	4.01377	130.022
61	1	68982.6	5133.83	69173.4	4.25623	133.217
62	0.79433	69534.8	5560.66	69756.8	4.57219	136.457
63	0.63096	70062.2	6024.06	70320.7	4.9143	139.952
64	0.50119	70628.1	6738.04	70948.8	5.44962	143.692
65	0.39811	71230	7584.46	71632.7	6.07786	147.853
66	0.31623	72012.6	8565.66	72520.3	6.78327	152.583
67	0.25119	72702.1	9788.93	73358.1	7.66844	157.938
68	0.19953	73533	11199.4	74381	8.65988	164.153
69	0.15849	74600.6	12940	75714.6	9.84045	171.408
70	0.12589	75787.1	14703.8	77200.3	10.9798	179.898
71	0.1	76550	17339.2	78489.1	12.7626	190.078