File: data/20200503/Z_p18_2.txt
Index	Frequency (Hz)	Z' (Ω)	-Z'' (Ω)	Z (Ω)	-Phase (°)	Time (s)
1	1000000	3068.68	7717.77	8305.47	68.3166	24.0582
2	794330	4845.29	8410.84	9706.65	60.0547	25.4483
3	630960	6720.73	9543.7	11672.6	54.8466	26.8433
4	501190	8826.06	10685	13858.9	50.4426	28.3033
5	398110	11391.8	13087.2	17350.7	48.9618	29.6683
6	316230	13894.5	14185.3	19856.5	45.5934	31.0734
7	251190	16325.8	14641	21929.2	41.8858	34.2134
8	199530	19141.8	15373	24550.8	38.7684	35.4984
9	158490	21910.1	15618.6	26907.2	35.4831	36.8735
10	125890	25016.6	15748.6	29560.9	32.1914	38.1185
11	100000	27899.5	15504.9	31918.4	29.0627	39.4785
12	79433	30640.8	15011.2	34120.3	26.1007	40.7485
13	63096	33198	14297	36145.7	23.2995	42.1086
14	50119	35533.7	13410.6	37980.1	20.6767	43.4636
15	39811	37673.2	12363.5	39650.1	18.1686	44.7586
16	31623	39427.1	11179	40981.3	15.8299	46.0186
17	25119	40862.8	10204.2	42117.6	14.0211	47.2837
18	19953	42187.6	9282.69	43196.8	12.4093	48.5587
19	15849	43381.4	8408.81	44188.8	10.9699	49.8337
20	12589	44368.3	7602.75	45015	9.7235	51.1787
21	10000	45183.4	6866.09	45702.1	8.64059	52.4638
22	7943.3	45996.8	6285.55	46424.3	7.78139	53.8038
23	6309.6	46702.1	5787.06	47059.2	7.06377	55.0888
24	5011.9	47367.4	5370.83	47670.9	6.46895	56.3638
25	3981.1	47972.7	5030.88	48235.7	5.98672	57.6489
26	3162.3	48545.6	4759.6	48778.3	5.59961	58.9089
27	2511.9	49119.6	4543.35	49329.3	5.28457	60.1789
28	1995.3	49671.7	4376.06	49864.1	5.03474	61.5639
29	1584.9	50206.6	4261.16	50387.1	4.85121	62.729
30	1258.9	50756.1	4177.96	50927.8	4.70566	64.084
31	1000	51286.6	4119.61	51451.8	4.59244	65.409
32	794.33	51829.1	4088.76	51990.1	4.51069	66.804
33	630.96	52414.9	4080.31	52573.5	4.45129	68.0491
34	501.19	52981.5	4083.21	53138.7	4.40699	69.3341
35	398.11	53535.7	4096.26	53692.2	4.37543	70.5941
36	316.23	54126.4	4124.45	54283.3	4.35754	71.9441
37	251.19	54729.3	4146.33	54886.2	4.33249	73.2641
38	199.53	55336.7	4172.71	55493.8	4.31227	74.5342
39	158.49	55962	4201.24	56119.5	4.29332	75.8592
40	125.89	56573.7	4220	56730.9	4.26596	77.2092
41	100	57186.6	4233.11	57343.1	4.23347	78.5392
42	79.433	57793.1	4238.87	57948.4	4.19488	79.8943
43	63.096	58436.2	4249.14	58590.4	4.1589	81.3293
44	50.119	59038	4246.63	59190.6	4.11423	82.7493
45	39.811	59697.7	4231.68	59847.5	4.05463	91.8145
46	31.623	60316	4215.77	60463.2	3.99817	93.4095
47	25.119	60953.1	4191.1	61097	3.93343	94.9946
48	19.953	61552.9	4195.58	61695.7	3.89938	96.8596
49	15.849	62175.6	4179.88	62315.9	3.84604	98.7596
50	12.589	62774.3	4163.97	62912.2	3.79501	100.705
51	10	63376.9	4150.8	63512.6	3.74717	102.945
52	7.9433	63941.5	4139.74	64075.4	3.7043	105.225
53	6.3096	64551.9	4141.34	64684.7	3.67079	107.63
54	5.0119	65102.8	4144.32	65234.6	3.64243	110.02
55	3.9811	65670	4164.47	65801.9	3.62856	112.39
56	3.1623	66223.7	4208.37	66357.2	3.63613	115.015
57	2.5119	66739.1	4287.31	66876.7	3.67562	117.6
58	1.9953	67238.7	4421.27	67383.9	3.76206	120.165
59	1.5849	67777.6	4576.82	67932	3.86315	122.98
60	1.2589	68267.1	4810.83	68436.4	4.03101	125.95
61	1	68764.4	5139.77	68956.2	4.27461	130.92
62	0.79433	69360.2	5562.03	69582.9	4.58476	133.985
63	0.63096	69839.2	6044.2	70100.3	4.94631	137.455
64	0.50119	70472.3	6731.76	70793.1	5.45653	141.21
65	0.39811	71074.8	7588.19	71478.7	6.09401	145.455
66	0.31623	71805.3	8554.3	72313.1	6.79373	150.291
67	0.25119	72552.6	9805.8	73212.3	7.69713	155.701
68	0.19953	73486.1	11044.4	74311.4	8.54716	162.581
69	0.15849	74316.3	12767.4	75405.1	9.74815	169.851
70	0.12589	75439.6	15009.7	76918.3	11.2528	178.406
71	0.1	76790.7	17124.2	78676.9	12.5712	188.786