File: data/20200503/Z_p24_2.txt
Index	Frequency (Hz)	Z' (Ω)	-Z'' (Ω)	Z (Ω)	-Phase (°)	Time (s)
1	1000000	3467.74	7369.15	8144.3	64.7995	23.5402
2	794330	5096.14	7756.3	9280.67	56.6938	25.0103
3	630960	6901.86	8535.54	10976.8	51.0409	26.5953
4	501190	8699.56	9388.92	12799.8	47.1825	28.2003
5	398110	11027.2	11232.4	15740.6	45.5282	29.8053
6	316230	13086.4	11989.3	17748.1	42.4949	31.2654
7	251190	15071.4	12236.3	19413.2	39.0728	34.7154
8	199530	17316.4	12770.6	21516.2	36.4083	36.2055
9	158490	19597.7	13096.1	23570.7	33.7527	37.7355
10	125890	21927.6	13286.9	25639.1	31.2134	38.9905
11	100000	24212.8	13298	27624.2	28.7762	40.5555
12	79433	26491.4	13193.5	29595	26.4746	41.9556
13	63096	28712	12919	31484.6	24.2254	43.5206
14	50119	30888.1	12503.9	33323	22.0387	44.9406
15	39811	33000.5	11937.9	35093.5	19.8876	46.2206
16	31623	34889.9	11170.6	36634.5	17.7533	47.5457
17	25119	36510.2	10413	37966.1	15.9185	48.9857
18	19953	38088.9	9658.36	39294.4	14.2288	50.2707
19	15849	39479.7	8843.07	40457.9	12.6253	51.5507
20	12589	40705.7	8026.28	41489.4	11.1544	53.7408
21	10000	41733.3	7211.32	42351.7	9.80364	55.0308
22	7943.3	42661	6486.55	43151.3	8.64554	56.3308
23	6309.6	43464.5	5821.85	43852.7	7.62908	57.6809
24	5011.9	44155.7	5204.47	44461.4	6.72222	58.9709
25	3981.1	44734.2	4653.34	44975.6	5.93866	60.3809
26	3162.3	45264.5	4172.74	45456.5	5.26697	61.6809
27	2511.9	45729.8	3737.66	45882.3	4.6726	62.976
28	1995.3	46125.1	3377.51	46248.6	4.18801	64.276
29	1584.9	46520.9	3048.55	46620.7	3.74928	65.531
30	1258.9	46870.8	2770.82	46952.7	3.38316	67.121
31	1000	47159.1	2530.19	47226.9	3.0711	68.4161
32	794.33	47436.9	2324.79	47493.8	2.80571	69.8461
33	630.96	47713.1	2149.68	47761.5	2.57968	71.2411
34	501.19	47944.5	2004.12	47986.3	2.39362	72.5561
35	398.11	48174.1	1884.07	48210.9	2.23968	73.7962
36	316.23	48398.5	1782.92	48431.4	2.10972	75.2062
37	251.19	48626.3	1705.29	48656.2	2.00849	76.5512
38	199.53	48779.1	1637.73	48806.6	1.92295	77.7912
39	158.49	48969.7	1592.02	48995.6	1.86205	79.1113
40	125.89	49168.8	1560.73	49193.6	1.81809	80.7113
41	100	49368.2	1546.68	49392.4	1.79446	82.0863
42	79.433	49562.1	1547.28	49586.2	1.78814	84.4864
43	63.096	49742.2	1563.97	49766.8	1.80088	85.8714
44	50.119	49919.4	1584.78	49944.6	1.81835	87.3514
45	39.811	50125.1	1640.31	50151.9	1.8743	96.6366
46	31.623	50319.7	1698.46	50348.3	1.93319	98.3066
47	25.119	50523.7	1781.82	50555.1	2.01982	99.9966
48	19.953	50746.9	1903.99	50782.6	2.14869	101.932
49	15.849	50965.3	2042.61	51006.2	2.2951	103.857
50	12.589	51210.2	2202.27	51257.5	2.46246	105.957
51	10	51462.2	2401.68	51518.2	2.67198	108.837
52	7.9433	51729.8	2628.87	51796.6	2.90922	111.112
53	6.3096	52012.6	2920.23	52094.5	3.21348	113.482
54	5.0119	52334	3242.54	52434.4	3.54543	115.927
55	3.9811	52718.7	3613.25	52842.4	3.92082	118.312
56	3.1623	53128.8	4046.57	53282.7	4.35554	120.837
57	2.5119	53528.3	4560.28	53722.2	4.86948	123.442
58	1.9953	54014.2	5134.72	54257.7	5.43036	126.082
59	1.5849	54543.9	5816.36	54853.1	6.08681	128.827
60	1.2589	55086.6	6599.15	55480.5	6.83124	131.642
61	1	55685.2	7603.03	56201.8	7.77486	134.857
62	0.79433	56321.3	8686.78	56987.3	8.76798	138.022
63	0.63096	57092.2	9988.12	57959.3	9.92331	141.487
64	0.50119	57701.1	11707.3	58876.8	11.4694	145.287
65	0.39811	58548.2	13692.8	60128.1	13.1633	149.538
66	0.31623	59565.3	16162.2	61719.1	15.1809	154.718
67	0.25119	61073.2	19346.7	64064.3	17.5771	160.063
68	0.19953	62556.7	23105	66687.2	20.2715	166.318
69	0.15849	64316.2	27198.3	69830.6	22.9227	173.563
70	0.12589	65832.6	32147.1	73262.3	26.027	182.073
71	0.1	68357.4	39230.8	78814.9	29.8519	192.588