File: data/20200503/Z_p25_3.txt
Index	Frequency (Hz)	Z' (Ω)	-Z'' (Ω)	Z (Ω)	-Phase (°)	Time (s)
1	1000000	3604.32	8377.42	9119.88	66.7205	665.451
2	794330	5545.16	8918.29	10501.7	58.1277	667.841
3	630960	7626.84	9881.73	12482.7	52.3386	670.456
4	501190	9809.43	11053.5	14778.5	48.4125	673.041
5	398110	12542.7	13445.3	18387.4	46.989	675.401
6	316230	15056.6	14509.4	20909.9	43.9397	677.796
7	251190	17490.3	14871.8	22958.3	40.3742	684.086
8	199530	20277.3	15607.7	25588.5	37.5859	686.601
9	158490	22908.7	16040	27965.8	34.9987	692.896
10	125890	25840.3	16324.7	30565	32.2829	695.691
11	100000	28699.6	16431.1	33070.3	29.792	698.331
12	79433	31493.6	16319.5	35470.7	27.3925	701.231
13	63096	34273.4	16047.8	37844.4	25.0903	704.161
14	50119	36971.3	15595.9	40126.2	22.8719	706.441
15	39811	39574.9	14961	42308.4	20.7088	708.987
16	31623	41993.6	14058.6	44284.4	18.5095	711.572
17	25119	44062.1	13140.8	45979.8	16.6064	714.127
18	19953	46040	12259	47644.1	14.9101	716.627
19	15849	47810.5	11285.9	49124.5	13.2818	719.017
20	12589	49371.9	10293	50433.4	11.7762	721.357
21	10000	50728.4	9307.73	51575.3	10.3971	723.747
22	7943.3	51961.4	8438.05	52642	9.22379	726.172
23	6309.6	53013.6	7616.01	53557.8	8.17526	728.602
24	5011.9	53955.4	6868.55	54390.9	7.25476	731.117
25	3981.1	54784.4	6184.96	55132.4	6.44121	733.672
26	3162.3	55474.3	5569.9	55753.2	5.73357	735.947
27	2511.9	56118	5024.96	56342.5	5.11678	738.322
28	1995.3	56689	4547.13	56871.1	4.58599	740.782
29	1584.9	57183.3	4132.43	57332.4	4.13337	743.112
30	1258.9	57624.5	3765.32	57747.4	3.73852	745.557
31	1000	58062.8	3463.47	58166	3.41368	748.022
32	794.33	58463.7	3208.09	58551.6	3.14086	750.502
33	630.96	58829.9	2989.18	58905.8	2.90873	753.092
34	501.19	59183.6	2817.43	59250.6	2.7255	755.467
35	398.11	59457.6	2676.21	59517.8	2.57717	757.837
36	316.23	59765.9	2574.02	59821.3	2.46611	760.257
37	251.19	60034.4	2507.2	60086.7	2.39144	762.733
38	199.53	60340.3	2474.16	60391	2.34801	765.178
39	158.49	60600.1	2474.53	60650.6	2.33831	767.733
40	125.89	60888.4	2502.16	60939.8	2.3532	770.163
41	100	61142.4	2560.01	61196	2.39755	772.628
42	79.433	61445.8	2662.62	61503.5	2.48124	775.118
43	63.096	61781.6	2798.92	61845	2.59392	777.733
44	50.119	62077.5	2986.1	62149.2	2.75396	780.443
45	39.811	62386.3	3209.91	62468.8	2.94539	790.548
46	31.623	62752.7	3498.62	62850.1	3.19109	793.138
47	25.119	63153.2	3836.96	63269.7	3.47681	795.913
48	19.953	63566.2	4273.17	63709.7	3.84586	798.838
49	15.849	64035.4	4761.56	64212.2	4.25259	801.873
50	12.589	64564.6	5330.33	64784.2	4.71953	804.888
51	10	65116	5998.95	65391.7	5.26365	808.263
52	7.9433	65817.2	6778.21	66165.3	5.8799	811.738
53	6.3096	66563.8	7672.32	67004.5	6.57504	815.339
54	5.0119	67422.2	8706.91	67982	7.35846	818.844
55	3.9811	68427	9875.72	69136	8.21251	822.514
56	3.1623	69557.3	11217.9	70456.1	9.16155	826.734
57	2.5119	70841.1	12719.2	71973.9	10.1787	831.719
58	1.9953	72343.3	14426.8	73767.7	11.2781	836.464
59	1.5849	74006.8	16367.7	75795.2	12.4711	840.594
60	1.2589	75813.7	18558.4	78052.1	13.7549	844.974
61	1	77898.4	21077.4	80699.6	15.1403	850.294
62	0.79433	80348.6	23851.6	83814	16.5336	855.164
63	0.63096	82980.3	27110.3	87296.6	18.0926	861.129
64	0.50119	85832.2	30826.7	91200.1	19.7558	866.654
65	0.39811	89000.8	35429.8	95793.6	21.7067	873.145
66	0.31623	92683.6	40684.4	101220	23.6995	879.55
67	0.25119	97055.6	46140.1	107465	25.4264	886.79
68	0.19953	101502	53080.5	114544	27.6072	894.475
69	0.15849	107141	61436.9	123506	29.8308	904.17
70	0.12589	114495	69789.6	134088	31.3641	915.07
71	0.1	121404	80177	145490	33.4413	926.976