File: data/20200503/Z_p29_2.txt
Index	Frequency (Hz)	Z' (Ω)	-Z'' (Ω)	Z (Ω)	-Phase (°)	Time (s)
1	1000000	3411.13	6100	6988.98	60.786	233.253
2	794330	4702.83	6372.46	7919.9	53.5729	235.008
3	630960	6125.53	6838.16	9180.56	48.1465	236.423
4	501190	7517.55	7419.11	10562	44.6224	237.933
5	398110	9378.36	8576.05	12708.4	42.4414	239.318
6	316230	10957.9	8998.79	14179.4	39.3933	240.743
7	251190	12432.9	9068.14	15388.6	36.1056	243.073
8	199530	14125.4	9291.99	16907.6	33.3377	244.468
9	158490	15800.7	9456.21	18414.2	30.8992	246.138
10	125890	17468.9	9462.81	19867.3	28.4441	247.683
11	100000	19094.9	9354.58	21263.2	26.1002	249.263
12	79433	20689.7	9143.37	22620	23.842	250.698
13	63096	22227.6	8829.8	23917.2	21.6652	252.198
14	50119	23690.2	8409.16	25138.4	19.543	253.563
15	39811	25061.6	7890.58	26274.5	17.4764	254.968
16	31623	26275.6	7269.25	27262.6	15.4643	256.268
17	25119	27293.8	6672.79	28097.7	13.7382	257.563
18	19953	28228.1	6099.35	28879.5	12.1927	258.878
19	15849	29047.6	5517.08	29566.9	10.7542	260.263
20	12589	29714.4	4981.37	30129	9.51667	262.433
21	10000	30288.3	4460.14	30614.9	8.37696	263.853
22	7943.3	30814.7	4037.12	31078	7.46398	265.259
23	6309.6	31261.6	3667.89	31476	6.69187	266.669
24	5011.9	31676.7	3354.52	31853.8	6.04501	268.099
25	3981.1	32039.9	3094.25	32188.9	5.51623	269.414
26	3162.3	32406.5	2881.05	32534.4	5.08044	270.694
27	2511.9	32715.9	2703.98	32827.4	4.72477	271.969
28	1995.3	33035	2562.7	33134.3	4.43585	273.344
29	1584.9	33348	2453.57	33438.1	4.20794	274.639
30	1258.9	33635.9	2365.42	33718.9	4.02267	275.939
31	1000	33943.2	2300.81	34021.1	3.87781	277.369
32	794.33	34240.8	2251.22	34314.8	3.76159	278.809
33	630.96	34559.6	2217.15	34630.6	3.67075	280.209
34	501.19	34850.1	2194.08	34919.1	3.60245	281.514
35	398.11	35145.3	2177.44	35212.6	3.54526	282.804
36	316.23	35452.1	2168.38	35518.4	3.50005	284.119
37	251.19	35758.9	2166.9	35824.5	3.46773	285.669
38	199.53	36057.8	2162.81	36122.6	3.43259	287.004
39	158.49	36363.1	2166.04	36427.6	3.4089	288.459
40	125.89	36675.5	2165.39	36739.4	3.37893	289.949
41	100	36988.3	2167.52	37051.8	3.35371	291.349
42	79.433	37295.6	2169.72	37358.6	3.3295	292.834
43	63.096	37624.9	2164.23	37687	3.2921	294.424
44	50.119	37939.7	2164.72	38001.5	3.26558	295.779
45	39.811	38270.4	2160.07	38331.3	3.23047	304.999
46	31.623	38592.8	2145.77	38652.4	3.18238	306.614
47	25.119	38921.3	2130.09	38979.6	3.13257	308.284
48	19.953	39236.1	2127.18	39293.7	3.10325	310.159
49	15.849	39535.7	2103.65	39591.6	3.04577	312.199
50	12.589	39847	2075.63	39901	2.98184	314.199
51	10	40145.7	2053.14	40198.2	2.92768	316.539
52	7.9433	40432.3	2026.36	40483	2.86911	319.195
53	6.3096	40725.9	1997.86	40774.9	2.80847	321.705
54	5.0119	41006.9	1980.87	41054.7	2.76557	324.15
55	3.9811	41255.9	1966.58	41302.8	2.7291	326.96
56	3.1623	41517	1968.63	41563.6	2.71478	329.535
57	2.5119	41747.4	1988.13	41794.7	2.72653	332.095
58	1.9953	41986.7	2035.54	42036	2.77556	335.095
59	1.5849	42198.8	2092.39	42250.6	2.83863	337.86
60	1.2589	42410.1	2196.53	42466.9	2.96485	341.035
61	1	42653.2	2351.17	42718	3.15512	344.44
62	0.79433	42892	2521.15	42966.1	3.36392	347.765
63	0.63096	43119.4	2761.21	43207.8	3.66401	351.32
64	0.50119	43336.3	3055.25	43443.8	4.03274	355.1
65	0.39811	43560.7	3473.46	43699	4.55903	359.485
66	0.31623	43823.4	3960.36	44002	5.16385	364.345
67	0.25119	44075.4	4620.42	44316.9	5.98446	369.695
68	0.19953	44397.1	5297.4	44712	6.80428	376.681
69	0.15849	44708	6242.36	45141.7	7.94854	384.306
70	0.12589	45023.6	7542.98	45651.1	9.51065	392.961
71	0.1	45680.7	8979.36	46554.8	11.1207	403.291