File: data/20200503/Z_p22_1.txt
Index	Frequency (Hz)	Z' (Ω)	-Z'' (Ω)	Z (Ω)	-Phase (°)	Time (s)
1	1000000	3926.65	7247.65	8243	61.5519	47.3037
2	794330	5684.45	7463.23	9381.52	52.7049	48.8437
3	630960	7506.46	7879.22	10882.5	46.3879	50.4287
4	501190	9390.67	8379.15	12585.5	41.742	52.0188
5	398110	11846	9460.52	15160.1	38.6117	53.6588
6	316230	13724.4	9671.31	16789.7	35.1716	55.2688
7	251190	15374.6	9306.91	17972.2	31.1883	58.6339
8	199530	17213.2	9111.35	19475.9	27.8934	59.9989
9	158490	18870.2	8763.75	20806	24.9112	61.4989
10	125890	20410.3	8229.41	22006.9	21.9592	62.964
11	100000	21768.4	7603.96	23058.2	19.2549	64.479
12	79433	22949.6	6926.23	23972	16.7939	65.834
13	63096	23954.7	6226.64	24750.7	14.5707	67.154
14	50119	24805	5531.81	25414.3	12.5719	68.5841
15	39811	25522	4850.25	25978.8	10.7603	70.0291
16	31623	26073.4	4205.6	26410.4	9.1628	71.4191
17	25119	26496.5	3678.34	26750.6	7.90349	72.9841
18	19953	26874.2	3230.28	27067.6	6.85407	74.5092
19	15849	27220.3	2820.66	27366	5.91607	75.9692
20	12589	27501.3	2480.2	27612.9	5.15328	77.4592
21	10000	27702.8	2151.95	27786.2	4.44181	78.8393
22	7943.3	27912.4	1904.87	27977.3	3.90407	80.0993
23	6309.6	28101.9	1695.95	28153.1	3.4536	81.3693
24	5011.9	28280.7	1516.26	28321.3	3.06896	82.6243
25	3981.1	28420.6	1364.46	28453.4	2.74863	84.0443
26	3162.3	28561.9	1236.99	28588.6	2.47988	85.3944
27	2511.9	28704.1	1127.88	28726.3	2.25019	86.9644
28	1995.3	28817	1035.13	28835.6	2.05722	88.4444
29	1584.9	28932.9	954.559	28948.6	1.88963	89.9195
30	1258.9	29043.2	884.959	29056.7	1.74529	91.1445
31	1000	29156.7	826.531	29168.4	1.62378	92.5295
32	794.33	29255.1	773.544	29265.3	1.51463	94.0745
33	630.96	29351	725.521	29359.9	1.41599	95.6146
34	501.19	29446.1	682.906	29454	1.32855	96.9796
35	398.11	29538.5	644.915	29545.6	1.25074	98.4396
36	316.23	29616.6	610.294	29622.9	1.1805	99.9246
37	251.19	29692.3	578.368	29698	1.11591	101.55
38	199.53	29767.7	548.174	29772.7	1.05499	103.1
39	158.49	29835.8	520.398	29840.4	0.999254	104.68
40	125.89	29895.9	490.902	29900	0.940734	106.26
41	100	29950.7	466.342	29954.4	0.89204	107.95
42	79.433	30014.5	445.791	30017.8	0.850923	109.62
43	63.096	30076.1	430.372	30079.1	0.819816	111.33
44	50.119	30135.6	415.632	30138.5	0.790177	112.8
45	39.811	30171.5	398.604	30174.1	0.756906	121.86
46	31.623	30223.4	388.762	30225.9	0.736952	123.465
47	25.119	30264.6	380.623	30267	0.720543	125.13
48	19.953	30323.6	391.657	30326.1	0.739987	127.045
49	15.849	30343.5	397.763	30346.1	0.751029	129.24
50	12.589	30401.5	412.079	30404.3	0.776571	131.195
51	10	30449.6	431.126	30452.6	0.811178	133.445
52	7.9433	30471.5	455.857	30474.9	0.857088	135.795
53	6.3096	30532.3	493.261	30536.3	0.925555	138.14
54	5.0119	30578	538.816	30582.8	1.0095	140.61
55	3.9811	30648.1	596.858	30653.9	1.11567	143.1
56	3.1623	30700.4	667.835	30707.6	1.24618	145.765
57	2.5119	30732.3	751.327	30741.4	1.40046	148.331
58	1.9953	30828.2	855.453	30840.1	1.5895	150.886
59	1.5849	30912.6	979.225	30928.1	1.81436	153.601
60	1.2589	30990.9	1126.91	31011.4	2.08249	156.406
61	1	31086.1	1315.55	31114	2.42329	159.741
62	0.79433	31210.8	1508.64	31247.3	2.76737	163.126
63	0.63096	31323.8	1748.04	31372.5	3.1941	166.781
64	0.50119	31477.2	2049	31543.8	3.72441	170.706
65	0.39811	31639.8	2385.58	31729.6	4.31182	174.981
66	0.31623	31846.8	2820.2	31971.4	5.06065	179.766
67	0.25119	32039.4	3257.8	32204.6	5.80593	185.166
68	0.19953	32293	3806.09	32516.5	6.72195	191.511
69	0.15849	32546	4491.05	32854.4	7.85668	199.026
70	0.12589	32843.4	5393.66	33283.3	9.32608	207.752
71	0.1	33244	6290.98	33834	10.7157	218.122