File: data/20200503/Z_p29_1.txt
Index	Frequency (Hz)	Z' (Ω)	-Z'' (Ω)	Z (Ω)	-Phase (°)	Time (s)
1	1000000	3409.75	6111.24	6998.12	60.8408	25.7713
2	794330	4729.53	6370.8	7934.46	53.4107	27.3013
3	630960	6101.98	6900.62	9211.55	48.5148	28.8413
4	501190	7525.87	7502.15	10626.4	44.9095	30.3813
5	398110	9380.85	8577.43	12711.1	42.4384	32.1014
6	316230	10962.9	9017.92	14195.4	39.4401	33.5914
7	251190	12458.9	9080.57	15416.9	36.0862	36.0064
8	199530	14138.6	9348.87	16950	33.4738	37.6665
9	158490	15811.2	9480.29	18435.6	30.9466	39.3015
10	125890	17495.4	9492.8	19904.9	28.4837	40.6065
11	100000	19128.8	9387.25	21308	26.139	42.8016
12	79433	20727.3	9172.25	22666	23.8704	44.0566
13	63096	22262.2	8853.97	23958.2	21.6884	46.5516
14	50119	23732.1	8436.56	25187	19.5699	47.8017
15	39811	25115.9	7920.18	26335.1	17.5024	50.4067
16	31623	26306.7	7283.16	27296.3	15.475	51.7567
17	25119	27334.2	6696.58	28142.5	13.7657	53.2918
18	19953	28269.2	6102.35	28920.3	12.1813	54.6368
19	15849	29078.7	5525.38	29599	10.7588	55.9518
20	12589	29782.8	4992.47	30198.4	9.51595	57.3318
21	10000	30359	4475.23	30687.1	8.3856	59.0369
22	7943.3	30885.8	4052.68	31150.5	7.47535	60.4319
23	6309.6	31343.6	3684.39	31559.4	6.70426	61.7469
24	5011.9	31754.5	3368.51	31932.6	6.05529	63.0719
25	3981.1	32129.9	3109.57	32280	5.52794	64.587
26	3162.3	32478.7	2891.99	32607.2	5.08834	65.952
27	2511.9	32811.8	2714.24	32923.9	4.72883	67.322
28	1995.3	33124.5	2573.27	33224.3	4.44209	68.7521
29	1584.9	33420.7	2461.32	33511.2	4.21204	70.1521
30	1258.9	33727.8	2373.6	33811.3	4.02556	71.4971
31	1000	34020.4	2307.8	34098.6	3.88076	74.2822
32	794.33	34312.2	2259.57	34386.5	3.76768	75.8472
33	630.96	34617.1	2222.9	34688.4	3.67414	77.2272
34	501.19	34931.6	2200.76	35000.9	3.60498	78.6422
35	398.11	35234.3	2182.61	35301.8	3.5447	79.9273
36	316.23	35509.2	2171.92	35575.6	3.50013	81.2373
37	251.19	35825.1	2174.4	35891	3.4733	82.7523
38	199.53	36139.1	2169.6	36204.1	3.43562	84.1773
39	158.49	36438.3	2170.63	36502.9	3.40908	85.5024
40	125.89	36755.1	2171.49	36819.2	3.3811	86.9124
41	100	37046.4	2169.44	37109.8	3.35143	88.4674
42	79.433	37379.3	2174.45	37442.5	3.32929	89.8724
43	63.096	37705.5	2170.6	37767.9	3.29472	91.4675
44	50.119	38032.8	2169.09	38094.6	3.26416	92.8575
45	39.811	38341.7	2162.22	38402.6	3.22769	102.088
46	31.623	38665	2149.22	38724.7	3.18156	103.943
47	25.119	38982	2135.49	39040.5	3.13562	106.138
48	19.953	39313.1	2130.75	39370.8	3.10237	108.358
49	15.849	39629.3	2108.55	39685.3	3.04565	110.413
50	12.589	39910.2	2080.25	39964.4	2.98374	112.673
51	10	40237.6	2056.61	40290.2	2.92594	115.088
52	7.9433	40519.4	2026.2	40570	2.86274	117.413
53	6.3096	40811.7	2006.92	40861	2.81526	119.733
54	5.0119	41053.4	1983.38	41101.3	2.76593	124.103
55	3.9811	41333	1970.67	41380	2.72968	126.933
56	3.1623	41578.2	1974.61	41625	2.71902	129.513
57	2.5119	41818.5	1987.69	41865.7	2.7213	132.438
58	1.9953	42043.9	2027.78	42092.8	2.76124	135.073
59	1.5849	42290.7	2093.33	42342.5	2.83374	137.958
60	1.2589	42505.7	2194.12	42562.3	2.95496	140.933
61	1	42746.5	2351.39	42811.1	3.14855	144.173
62	0.79433	42962.8	2529.4	43037.2	3.36935	147.784
63	0.63096	43141.4	2743.6	43228.5	3.63886	151.224
64	0.50119	43398.1	3061.25	43505.9	4.03489	155.299
65	0.39811	43631.9	3428.54	43766.4	4.49299	159.669
66	0.31623	43829.2	3963.96	44008.1	5.16783	164.459
67	0.25119	44201.2	4547.44	44434.5	5.87395	169.994
68	0.19953	44492.7	5303.61	44807.7	6.79769	176.164
69	0.15849	44829.7	6222.94	45259.6	7.90289	183.569
70	0.12589	45069.4	7421.52	45676.4	9.3509	192.339
71	0.1	45680.2	9026.54	46563.5	11.1778	202.6