File: data/20200503/Z_p26_2.txt
Index	Frequency (Hz)	Z' (Ω)	-Z'' (Ω)	Z (Ω)	-Phase (°)	Time (s)
1	1000000	3661.02	9115.32	9823.04	68.1179	362.74
2	794330	5890.87	9645.01	11301.7	58.5847	364.16
3	630960	8398.95	10635.6	13552.1	51.7019	365.63
4	501190	10868.7	11755.8	16010.2	47.2453	367.1
5	398110	14022.4	14582.1	20230.3	46.121	368.645
6	316230	16834	15462.5	22857.7	42.5683	370.21
7	251190	19490.3	15640.6	24990	38.7463	373.735
8	199530	22443.5	16172.5	27663.3	35.7759	375.205
9	158490	25303.9	16366.3	30135.4	32.8944	376.731
10	125890	28329	16291.8	32679.6	29.9029	378.141
11	100000	31222.7	16008.5	35087.5	27.1451	379.716
12	79433	33920	15543.1	37311.5	24.6186	381.166
13	63096	36553.5	14901.8	39474.3	22.1793	382.751
14	50119	39009.6	14093.6	41477.4	19.864	384.331
15	39811	41296.4	13113.2	43328.3	17.6167	385.996
16	31623	43275.4	11907.7	44883.8	15.3849	387.561
17	25119	44803.1	10877	46104.6	13.6459	389.201
18	19953	46379.7	9867.6	47417.8	12.011	390.806
19	15849	47678.6	8871.42	48496.9	10.5403	392.411
20	12589	48754.6	7902.53	49390.9	9.20688	394.001
21	10000	49665.1	6958.85	50150.3	7.97609	395.586
22	7943.3	50522.1	6178.9	50898.6	6.9727	397.191
23	6309.6	51189.1	5473.31	51480.9	6.10307	398.891
24	5011.9	51799	4850.87	52025.7	5.35002	400.531
25	3981.1	52320.4	4310.92	52497.7	4.71023	402.111
26	3162.3	52759.2	3839.02	52898.7	4.16179	403.656
27	2511.9	53149.3	3436.12	53260.2	3.69904	405.116
28	1995.3	53486.9	3086.55	53575.9	3.30269	406.481
29	1584.9	53835.2	2796.14	53907.8	2.9732	407.841
30	1258.9	54127.8	2549.16	54187.8	2.69637	409.251
31	1000	54411	2335.86	54461.1	2.45819	410.741
32	794.33	54648.7	2159.05	54691.3	2.26245	412.941
33	630.96	54911	2013.6	54947.9	2.10011	414.441
34	501.19	55107.4	1894.38	55139.9	1.96883	415.886
35	398.11	55328.8	1798.53	55358	1.86182	417.166
36	316.23	55526.6	1723.23	55553.4	1.77756	418.526
37	251.19	55741.7	1671.35	55766.8	1.71743	419.931
38	199.53	55922.9	1633.2	55946.7	1.67282	421.341
39	158.49	56113.9	1617.02	56137.1	1.65063	422.826
40	125.89	56272.3	1617.97	56295.6	1.64694	424.261
41	100	56468.5	1634.86	56492.1	1.65835	425.686
42	79.433	56635.7	1679	56660.5	1.69807	427.251
43	63.096	56842.3	1745.64	56869.1	1.75901	428.821
44	50.119	57020.3	1841.81	57050.1	1.85007	430.412
45	39.811	57226.3	1960.67	57259.9	1.96228	439.567
46	31.623	57424.5	2105.45	57463	2.09979	441.197
47	25.119	57699	2297.86	57744.7	2.28059	442.932
48	19.953	57952.3	2541.71	58008.1	2.5113	444.857
49	15.849	58224.1	2808.87	58291.8	2.76194	446.977
50	12.589	58510.4	3132.74	58594.2	3.06478	449.242
51	10	58876.9	3516.43	58981.8	3.41794	451.587
52	7.9433	59276.1	3946.48	59407.4	3.80901	454.222
53	6.3096	59729.4	4451.09	59895	4.26186	456.587
54	5.0119	60220.2	5027.42	60429.7	4.77221	459.142
55	3.9811	60801.2	5677.99	61065.7	5.33516	461.832
56	3.1623	61437.5	6430.01	61773	5.9748	464.472
57	2.5119	62166.8	7275.96	62591.2	6.67548	467.152
58	1.9953	62957	8253.05	63495.6	7.46833	469.767
59	1.5849	63835.8	9329.93	64514	8.31519	472.702
60	1.2589	64791	10571.8	65647.8	9.26716	475.842
61	1	65892.4	12079.5	66990.5	10.3882	479.292
62	0.79433	67018.7	13752.1	68415.1	11.596	482.572
63	0.63096	68282.7	15791.4	70084.9	13.0216	486.388
64	0.50119	69767.7	18213	72105.8	14.6307	490.198
65	0.39811	71153.1	21281.7	74267.6	16.6518	494.533
66	0.31623	73061.3	24868.6	77177.7	18.7975	499.483
67	0.25119	75005.3	28669.4	80297.8	20.9185	505.178
68	0.19953	77555.4	33703	84562	23.4882	511.693
69	0.15849	80549.6	39540.5	89731.2	26.1456	519.158
70	0.12589	83022.4	46752.4	95281.2	29.3852	527.718
71	0.1	87513.7	56002.6	103899	32.6164	538.158