File: data/20200503/Z_p21_2.txt
Index	Frequency (Hz)	Z' (Ω)	-Z'' (Ω)	Z (Ω)	-Phase (°)	Time (s)
1	1000000	3606.79	6796.8	7694.5	62.0469	37.8295
2	794330	5160.21	7043.04	8731.1	53.771	39.2195
3	630960	6854.09	7522.31	10176.6	47.6612	40.6995
4	501190	8485.63	8137.11	11756.6	43.7989	42.2246
5	398110	10802.6	9218.64	14201.4	40.4765	43.9896
6	316230	12629.3	9522.07	15816.7	37.0151	45.4946
7	251190	14222.2	9338.11	17013.8	33.2885	48.6297
8	199530	16056.2	9343.69	18577	30.1967	49.9697
9	158490	17761.5	9132.52	19971.8	27.2111	51.3347
10	125890	19403.1	8785.99	21299.6	24.3617	52.5998
11	100000	20901	8298.19	22488	21.6542	54.0248
12	79433	22259.4	7722.17	23560.8	19.1325	55.3698
13	63096	23462.3	7089.58	24510.1	16.8132	56.7348
14	50119	24514.6	6422.2	25341.8	14.6802	58.1299
15	39811	25424.9	5736.68	26064.1	12.7149	59.5249
16	31623	26147.6	5045.16	26629.9	10.921	60.7699
17	25119	26725.5	4478.03	27098.1	9.5119	62.1149
18	19953	27258.6	3954.02	27543.9	8.25351	63.445
19	15849	27696.4	3475.69	27913.6	7.15281	64.8
20	12589	28045.8	3052.13	28211.4	6.21086	66.055
21	10000	28342.9	2650.62	28466.6	5.34274	67.445
22	7943.3	28625.4	2342.18	28721.1	4.67762	68.8101
23	6309.6	28848.7	2073.58	28923.2	4.11121	70.0651
24	5011.9	29071.1	1842.41	29129.5	3.62633	71.4451
25	3981.1	29252.3	1645.44	29298.5	3.2195	72.8801
26	3162.3	29416.7	1477.86	29453.8	2.87606	74.2052
27	2511.9	29580.6	1336.82	29610.8	2.58757	75.5002
28	1995.3	29712.2	1218.42	29737.1	2.34824	76.8202
29	1584.9	29844	1114.79	29864.8	2.13923	78.0602
30	1258.9	29969.5	1028.31	29987.2	1.96516	79.3752
31	1000	30080.9	952.776	30096	1.81417	80.6853
32	794.33	30191	889.819	30204.1	1.68819	82.1203
33	630.96	30294.1	835.034	30305.6	1.57891	83.4503
34	501.19	30413.7	789.061	30423.9	1.48616	84.7103
35	398.11	30487.8	748.271	30497	1.40594	85.9854
36	316.23	30593	714.682	30601.4	1.33824	87.3304
37	251.19	30692.6	685.15	30700.2	1.2788	88.7954
38	199.53	30766.3	662.375	30773.4	1.23335	90.0254
39	158.49	30840.2	645.03	30846.9	1.19818	91.3505
40	125.89	30908.1	629.118	30914.5	1.16606	92.7955
41	100	30986.2	619.079	30992.4	1.14457	94.1455
42	79.433	31069.6	615.055	31075.6	1.13408	95.5705
43	63.096	31126.2	604.065	31132	1.1118	97.0306
44	50.119	31208.5	630.705	31214.9	1.15776	98.5706
45	39.811	31287.6	639.448	31294.1	1.17083	107.761
46	31.623	31363.2	668.245	31370.3	1.2206	109.381
47	25.119	31427.9	699.229	31435.7	1.27454	110.976
48	19.953	31514.9	756.385	31524	1.37488	112.941
49	15.849	31593	814.344	31603.5	1.47653	114.881
50	12.589	31681.1	889.95	31693.6	1.60907	116.861
51	10	31789.9	979.636	31805	1.76506	119.251
52	7.9433	31877.9	1092.06	31896.6	1.96205	121.511
53	6.3096	32006.7	1223.17	32030.1	2.18855	123.916
54	5.0119	32115.1	1375.51	32144.5	2.45252	126.336
55	3.9811	32278.4	1562.98	32316.2	2.77221	128.801
56	3.1623	32437.3	1775.44	32485.8	3.13294	131.311
57	2.5119	32634	2024.36	32696.8	3.54963	133.821
58	1.9953	32849.7	2314.1	32931.1	4.02956	136.541
59	1.5849	33133.4	2635.36	33238	4.54761	139.246
60	1.2589	33406.4	3003.25	33541.2	5.1371	142.186
61	1	33761.5	3436.73	33936	5.81236	145.491
62	0.79433	34163.1	3877.68	34382.4	6.47564	148.752
63	0.63096	34581.2	4418.86	34862.4	7.28192	152.322
64	0.50119	35079.3	5009.75	35435.2	8.12759	156.247
65	0.39811	35547.5	5714.75	36004	9.13294	160.647
66	0.31623	36149.7	6558.17	36739.8	10.2826	165.607
67	0.25119	36765.2	7383.51	37499.3	11.3556	171.062
68	0.19953	37420.2	8435.62	38359.2	12.7038	177.212
69	0.15849	38090.8	9780.57	39326.4	14.4007	184.502
70	0.12589	39001.8	11478.9	40655.9	16.4	193.172
71	0.1	39885.3	13041.1	41963.1	18.1059	203.368