File: data/20200503/Z_p24_1.txt
Index	Frequency (Hz)	Z' (Ω)	-Z'' (Ω)	Z (Ω)	-Phase (°)	Time (s)
1	1000000	3388.4	7304.63	8052.25	65.1148	47.3507
2	794330	5054.31	7807.47	9300.68	57.0822	49.2057
3	630960	6874.06	8547.81	10968.9	51.1941	51.0107
4	501190	8735.11	9461.18	12877	47.285	52.7858
5	398110	11024.9	11225.7	15734.2	45.517	54.5008
6	316230	13106.5	12033.7	17793	42.5566	56.0808
7	251190	15081.2	12269.1	19441.5	39.1297	59.7809
8	199530	17342	12793.8	21550.5	36.4176	61.1409
9	158490	19635.5	13144	23628.7	33.7983	62.5259
10	125890	21950.6	13329.4	25680.8	31.2679	64.821
11	100000	24246.6	13339.7	27673.9	28.8182	66.141
12	79433	26528.5	13227.6	29643.4	26.5018	67.441
13	63096	28762.5	12963.3	31548.8	24.2612	68.9311
14	50119	30956	12548.6	33402.7	22.0662	70.6561
15	39811	33058.8	11976.5	35161.3	19.9144	72.3061
16	31623	34967.6	11194	36715.7	17.7512	73.8612
17	25119	36618.2	10465.9	38084.4	15.9505	75.5162
18	19953	38181	9685.91	39390.4	14.2347	77.1862
19	15849	39559.5	8866.59	40541	12.6331	78.5062
20	12589	40808.3	8059.53	41596.5	11.172	79.7863
21	10000	41806.9	7221.98	42426.1	9.80089	81.0963
22	7943.3	42731.1	6494.98	43221.9	8.64262	82.4063
23	6309.6	43538.3	5824.13	43926.2	7.61923	84.7164
24	5011.9	44241.2	5213.49	44547.4	6.72088	86.0164
25	3981.1	44816.9	4662.13	45058.8	5.93889	87.4464
26	3162.3	45356.7	4178.79	45548.8	5.2639	88.7114
27	2511.9	45816.5	3746.73	45969.5	4.67507	90.0315
28	1995.3	46207.1	3370.01	46329.8	4.17135	91.2815
29	1584.9	46577	3047.96	46676.6	3.74405	92.5115
30	1258.9	46895	2769.61	46976.7	3.37996	93.8065
31	1000	47221.6	2526.03	47289.1	3.06201	95.1866
32	794.33	47490.6	2320.19	47547.2	2.797	96.5116
33	630.96	47745.6	2147.15	47793.9	2.5749	97.8716
34	501.19	48004.1	2001.16	48045.8	2.38712	99.1666
35	398.11	48239.8	1877.32	48276.3	2.22862	100.437
36	316.23	48427	1774.95	48459.6	2.09906	101.702
37	251.19	48637.6	1690.85	48667	1.99104	103.057
38	199.53	48836.3	1629.19	48863.5	1.91069	104.347
39	158.49	49036.8	1580.78	49062.3	1.84638	105.687
40	125.89	49211.2	1543.83	49235.4	1.79686	107.047
41	100	49393	1523.42	49416.5	1.76661	108.392
42	79.433	49589.3	1519.69	49612.6	1.75531	109.782
43	63.096	49795.8	1531.5	49819.3	1.76161	111.312
44	50.119	49954.3	1563.6	49978.8	1.79281	113.042
45	39.811	50132	1598.57	50157.5	1.82638	122.177
46	31.623	50332.4	1651.02	50359.5	1.87876	123.777
47	25.119	50533.2	1719.47	50562.4	1.94882	125.492
48	19.953	50719.4	1834.92	50752.6	2.07193	127.382
49	15.849	50940.5	1958.7	50978.2	2.20198	129.292
50	12.589	51156.3	2106.96	51199.6	2.3585	131.392
51	10	51392	2296.36	51443.2	2.55847	133.667
52	7.9433	51657	2511.72	51718	2.7837	135.997
53	6.3096	51946.4	2771.73	52020.3	3.05426	138.322
54	5.0119	52263.7	3076.46	52354.1	3.36879	141.807
55	3.9811	52585.4	3426.64	52697	3.72831	144.152
56	3.1623	52954.2	3835.9	53092.9	4.14316	146.668
57	2.5119	53363	4309.42	53536.7	4.617	149.238
58	1.9953	53781.5	4868.43	54001.4	5.17245	151.898
59	1.5849	54308.6	5515.03	54587.9	5.79851	154.628
60	1.2589	54803.4	6294.77	55163.7	6.55234	160.428
61	1	55304.2	7222.75	55773.8	7.44074	163.648
62	0.79433	56044.9	8300.67	56656.3	8.42469	166.913
63	0.63096	56617.7	9626.01	57430.2	9.64902	170.398
64	0.50119	57388	11190	58468.8	11.0336	174.158
65	0.39811	58233.6	13223.9	59716.2	12.7939	178.333
66	0.31623	59101.7	15533.1	61108.8	14.7255	183.088
67	0.25119	60435.1	18754.6	63278.3	17.2405	188.493
68	0.19953	61774.1	22289.4	65672.4	19.8405	194.668
69	0.15849	63650.2	26418.4	68915	22.5412	201.904
70	0.12589	65132	31015.4	72139.7	25.4634	210.394
71	0.1	67502.5	37974.3	77450.9	29.3604	220.579