File: data/20200503/Z_p24_3.txt
Index	Frequency (Hz)	Z' (Ω)	-Z'' (Ω)	Z (Ω)	-Phase (°)	Time (s)
1	1000000	3418.27	7314.62	8073.92	64.9523	81.1013
2	794330	5113.3	7768.95	9300.67	56.6482	82.4914
3	630960	6897.7	8522.28	10963.9	51.0143	83.9364
4	501190	8762.26	9451.72	12888.5	47.1678	85.5164
5	398110	11021.3	11218.3	15726.4	45.5075	87.0514
6	316230	13099.4	11971.3	17745.6	42.4237	88.4515
7	251190	15083.8	12194.8	19396.8	38.9545	90.8215
8	199530	17307.4	12776.8	21512.6	36.4359	92.1815
9	158490	19617.8	13111.2	23595.8	33.7562	93.7116
10	125890	21912.4	13280.7	25622.8	31.2194	95.0466
11	100000	24209.5	13295.1	27619.9	28.7742	97.3816
12	79433	26496.9	13189.8	29598.2	26.4636	98.6467
13	63096	28703.7	12911.9	31474.1	24.2198	100.062
14	50119	30899.7	12506.8	33334.8	22.0359	102.377
15	39811	32998.6	11941.8	35093	19.8946	103.612
16	31623	34898	11177.6	36644.4	17.76	104.947
17	25119	36518.3	10416.9	37975	15.9209	106.277
18	19953	38103.6	9667.11	39310.8	14.2359	107.597
19	15849	39476.2	8840.27	40453.9	12.6225	110.602
20	12589	40727.6	8039.13	41513.5	11.1659	111.872
21	10000	41733.9	7217.25	42353.4	9.8114	113.222
22	7943.3	42683	6495.72	43174.5	8.65317	114.617
23	6309.6	43489.9	5825.27	43878.3	7.62909	119.907
24	5011.9	44185.2	5215.72	44492	6.73217	121.212
25	3981.1	44761.3	4666.34	45003.9	5.95155	122.857
26	3162.3	45293.3	4181.73	45485.9	5.27492	124.317
27	2511.9	45743.6	3751.39	45897.1	4.68829	125.627
28	1995.3	46190.2	3384.46	46314	4.1907	126.947
29	1584.9	46539.3	3057.25	46639.6	3.75846	128.152
30	1258.9	46867.3	2772.39	46949.2	3.38533	129.387
31	1000	47165.1	2536.74	47233.2	3.07865	130.672
32	794.33	47471.2	2330.31	47528.3	2.81033	132.067
33	630.96	47728.6	2158.34	47777.4	2.58922	133.397
34	501.19	47974.6	2008.14	48016.6	2.39691	134.762
35	398.11	48186.6	1887.7	48223.6	2.2434	135.987
36	316.23	48426.8	1787.49	48459.8	2.11389	137.312
37	251.19	48624.8	1708.26	48654.8	2.01206	138.642
38	199.53	48819.4	1644.36	48847	1.92914	139.852
39	158.49	49016.7	1598.97	49042.7	1.86838	141.162
40	125.89	49182.3	1570.47	49207.4	1.82892	142.577
41	100	49377.2	1551.76	49401.5	1.80003	143.947
42	79.433	49588.3	1560.41	49612.8	1.80235	145.838
43	63.096	49753.7	1579.22	49778.7	1.818	147.573
44	50.119	49963.2	1607.92	49989.1	1.84326	148.963
45	39.811	50138	1655.9	50165.3	1.89162	158.083
46	31.623	50370.1	1727.83	50399.7	1.96463	159.683
47	25.119	50547	1806.57	50579.3	2.04691	161.268
48	19.953	50769.9	1938.29	50806.9	2.18637	163.188
49	15.849	50994.3	2075.13	51036.5	2.33027	165.128
50	12.589	51247.2	2251.62	51296.7	2.51576	167.183
51	10	51498.6	2456.79	51557.2	2.73127	169.548
52	7.9433	51779.7	2700.83	51850.1	2.98585	171.868
53	6.3096	52066.2	2992.39	52152.1	3.28933	174.313
54	5.0119	52417.7	3325.28	52523.1	3.62987	176.728
55	3.9811	52788.2	3701.74	52917.8	4.01127	179.343
56	3.1623	53209.1	4155.65	53371.1	4.46576	181.863
57	2.5119	53649.8	4666.62	53852.4	4.97124	184.493
58	1.9953	54114.3	5264.59	54369.8	5.55662	187.088
59	1.5849	54705.4	5961	55029.2	6.21873	192.908
60	1.2589	55227.8	6767.99	55641	6.98658	195.888
61	1	55853.1	7748.11	56388	7.89783	200.959
62	0.79433	56533.8	8873.51	57225.9	8.92034	204.084
63	0.63096	57283.4	10267	58196.2	10.1613	207.689
64	0.50119	58052.7	11899.5	59259.8	11.5839	211.574
65	0.39811	58990.4	14030.4	60635.9	13.3788	215.799
66	0.31623	59909.4	16458.1	62128.9	15.3612	220.639
67	0.25119	61331.8	19890.4	64476.5	17.9683	226.114
68	0.19953	62501.2	23488.3	66769.1	20.5965	232.594
69	0.15849	64469.6	28076.6	70318	23.5332	239.879
70	0.12589	66864	32909.5	74524	26.2057	248.499
71	0.1	68496	39167.9	78903.9	29.7621	258.78