File: data/20200503/Z_p29_3.txt
Index	Frequency (Hz)	Z' (Ω)	-Z'' (Ω)	Z (Ω)	-Phase (°)	Time (s)
1	1000000	3445.79	6122.14	7025.24	60.6274	482.289
2	794330	4708.06	6334.01	7892.12	53.3766	484.615
3	630960	6147.42	6843.56	9199.19	48.0673	487.521
4	501190	7551.34	7448.5	10606.7	44.6072	490.062
5	398110	9369.58	8547.85	12682.8	42.3741	492.514
6	316230	10963.4	8998.55	14183.4	39.3785	494.755
7	251190	12436	9040.63	15374.8	36.0162	496.886
8	199530	14114.6	9309.5	16908.3	33.4074	499.307
9	158490	15784	9438.63	18390.8	30.8789	501.568
10	125890	17441.6	9444.98	19834.7	28.4365	503.879
11	100000	19089.2	9345.85	21254.2	26.0859	506.525
12	79433	20670.6	9128.38	22596.5	23.8268	508.601
13	63096	22205.1	8811.28	23889.4	21.6438	510.842
14	50119	23664.6	8393.99	25109.2	19.53	513.108
15	39811	25036.3	7868.58	26243.7	17.4472	515.409
16	31623	26246.5	7258.06	27231.6	15.4579	517.745
17	25119	27254.2	6658.92	28055.9	13.7299	519.861
18	19953	28197	6075.27	28844	12.159	521.917
19	15849	29002.6	5502.79	29520	10.7433	524.213
20	12589	29685.8	4962.22	30097.7	9.48972	526.584
21	10000	30237.1	4443.03	30561.8	8.35921	528.855
22	7943.3	30768.2	4024.34	31030.2	7.45173	531.151
23	6309.6	31223.4	3659.63	31437.2	6.68501	533.267
24	5011.9	31626	3346.94	31802.6	6.04106	535.453
25	3981.1	32004.2	3088	32152.9	5.51125	537.629
26	3162.3	32338.8	2872.83	32466.2	5.07656	539.95
27	2511.9	32668.5	2698.28	32779.8	4.72167	542.201
28	1995.3	32984	2555.86	33082.8	4.43089	544.433
29	1584.9	33301.8	2447.25	33391.6	4.20294	546.429
30	1258.9	33601.8	2361.39	33684.7	4.01989	548.605
31	1000	33888.1	2294.78	33965.7	3.87395	550.921
32	794.33	34185.7	2247.15	34259.5	3.76084	553.142
33	630.96	34479.5	2212.03	34550.3	3.67079	555.313
34	501.19	34777.7	2188.94	34846.6	3.6015	557.559
35	398.11	35081.3	2172.21	35148.5	3.54319	559.8
36	316.23	35392.6	2163	35458.6	3.49726	561.941
37	251.19	35702.8	2161.95	35768.2	3.46526	564.172
38	199.53	35996.6	2159.36	36061.3	3.43294	566.403
39	158.49	36310.8	2161.92	36375.1	3.40733	568.604
40	125.89	36613	2164.13	36676.9	3.38272	570.8
41	100	36913.4	2163.93	36976.8	3.35494	573.016
42	79.433	37228.2	2162.77	37291	3.32485	575.222
43	63.096	37564.7	2165.09	37627	3.29866	577.438
44	50.119	37892.1	2161.21	37953.7	3.26439	579.764
45	39.811	38191.8	2153.93	38252.4	3.22794	589.84
46	31.623	38509.3	2146.88	38569.1	3.19093	592.376
47	25.119	38845.6	2126.95	38903.8	3.13404	595.007
48	19.953	39167.7	2126.24	39225.4	3.10728	597.663
49	15.849	39478.1	2097.5	39533.8	3.04131	600.57
50	12.589	39784.4	2075	39838.4	2.98562	603.446
51	10	40086.4	2049.86	40138.7	2.92733	606.707
52	7.9433	40390.6	2025.27	40441.3	2.87053	609.768
53	6.3096	40671.7	2000.28	40720.8	2.81561	613.039
54	5.0119	40937.9	1977.03	40985.6	2.76485	616.63
55	3.9811	41200.8	1968.71	41247.8	2.73569	619.951
56	3.1623	41433.8	1970.23	41480.6	2.72243	623.157
57	2.5119	41678.3	1993.12	41725.9	2.73788	626.408
58	1.9953	41907.3	2033.48	41956.6	2.778	630.124
59	1.5849	42135.9	2096.57	42188	2.84854	633.84
60	1.2589	42356.2	2200.98	42413.3	2.97462	637.716
61	1	42583.4	2352.69	42648.3	3.16231	641.942
62	0.79433	42831.4	2534.25	42906.3	3.38613	646.218
63	0.63096	43053.4	2764.62	43142.1	3.67413	650.704
64	0.50119	43242	3060.57	43350.2	4.04851	655.236
65	0.39811	43490.7	3469.11	43628.8	4.56064	660.322
66	0.31623	43771.4	3981.83	43952.2	5.19782	666.093
67	0.25119	44080.1	4619.66	44321.5	5.98284	672.449
68	0.19953	44289.7	5352.59	44612	6.891	679.63
69	0.15849	44679.4	6271.72	45117.4	7.9905	687.811
70	0.12589	45070.9	7441.47	45681.1	9.37529	697.342
71	0.1	45362.7	8955.36	46238.2	11.1676	708.459