File: data/20200503/Z_p20_2.txt
Index	Frequency (Hz)	Z' (Ω)	-Z'' (Ω)	Z (Ω)	-Phase (°)	Time (s)
1	1000000	2992.37	8373.3	8891.93	70.3346	17.9241
2	794330	4962.19	9155.02	10413.3	61.5415	19.5292
3	630960	7143.02	10462.6	12668.5	55.678	20.9392
4	501190	9401.19	11904.7	15169.2	51.7016	22.4342
5	398110	12151.9	14855.2	19192.3	50.716	23.8442
6	316230	14976.3	16269.3	22112.9	47.3696	25.2193
7	251190	17796.2	16927.1	24560.8	43.5662	27.6043
8	199530	21063.7	17835.8	27600.6	40.2564	28.9593
9	158490	24477.3	18408.9	30627.2	36.9461	30.3394
10	125890	27933.8	18599.9	33559.7	33.6579	31.6944
11	100000	31351	18435.9	36369.8	30.4576	33.1094
12	79433	34630.5	17941.5	39002.1	27.3879	34.5094
13	63096	37724.4	17180.1	41452.3	24.485	35.9395
14	50119	40620.6	16202.9	43732.9	21.7463	37.2845
15	39811	43229.3	15031.7	45768.2	19.1735	38.7845
16	31623	45403.6	13637.3	47407.5	16.718	40.1795
17	25119	47167.7	12461.7	48786.1	14.7994	41.5796
18	19953	48845.3	11394.5	50156.7	13.131	42.9596
19	15849	50294.1	10353.7	51348.7	11.6325	44.3596
20	12589	51574.3	9395.58	52423.2	10.3247	45.6896
21	10000	52611.2	8485.73	53291.1	9.1624	47.0697
22	7943.3	53634.3	7773.18	54194.7	8.24641	48.7997
23	6309.6	54489.9	7148.44	54956.8	7.47385	50.2347
24	5011.9	55323.8	6625.28	55719.1	6.82891	51.4997
25	3981.1	56111.7	6180.53	56451.1	6.28561	52.8848
26	3162.3	56819.4	5821.34	57116.8	5.84973	54.2198
27	2511.9	57488.3	5526.02	57753.2	5.49065	56.4698
28	1995.3	58143.8	5295.03	58384.4	5.20345	57.7199
29	1584.9	58820.7	5121.74	59043.2	4.97641	58.9649
30	1258.9	59489.7	4992.3	59698.8	4.79695	60.5199
31	1000	60111.7	4894.04	60310.6	4.65452	61.8499
32	794.33	60776.5	4832.84	60968.4	4.54649	63.255
33	630.96	61430.6	4793.05	61617.3	4.4614	64.55
34	501.19	62067.2	4769.07	62250.2	4.39381	65.845
35	398.11	62727.8	4764.19	62908.5	4.34328	67.03
36	316.23	63408.4	4769.05	63587.4	4.30121	68.3801
37	251.19	64115	4787.95	64293.5	4.27077	69.7101
38	199.53	64790.4	4796.42	64967.7	4.23387	71.1101
39	158.49	65483.3	4802.41	65659.2	4.19444	72.5351
40	125.89	66222.1	4806.12	66396.3	4.15101	74.1652
41	100	66880.9	4809.23	67053.6	4.11291	75.6152
42	79.433	67591.5	4800.65	67761.7	4.06258	77.0752
43	63.096	68356.5	4792.04	68524.3	4.01008	78.6102
44	50.119	69055.4	4785.15	69221	3.96394	80.1203
45	39.811	69745.8	4741.48	69906.8	3.88912	89.2154
46	31.623	70468.9	4702.04	70625.6	3.8174	90.8855
47	25.119	71168.2	4652.45	71320.1	3.74025	92.5505
48	19.953	71886.2	4635.06	72035.5	3.68919	94.4405
49	15.849	72560.6	4600.29	72706.3	3.62765	96.3906
50	12.589	73198.5	4528.89	73338.4	3.54045	98.4306
51	10	73848.8	4493.33	73985.4	3.48187	100.761
52	7.9433	74534.5	4425.37	74665.8	3.39786	103.061
53	6.3096	75174	4381.02	75301.6	3.33533	105.421
54	5.0119	75783.2	4324.96	75906.5	3.26634	107.831
55	3.9811	76388.3	4289.12	76508.7	3.21372	110.266
56	3.1623	76901.5	4264.46	77019.6	3.174	112.736
57	2.5119	77451.3	4272.04	77569	3.15711	115.306
58	1.9953	77987.1	4306.39	78105.9	3.16062	117.886
59	1.5849	78458	4395.31	78581	3.20642	120.766
60	1.2589	78974.1	4535.22	79104.2	3.28669	123.736
61	1	79465	4795.76	79609.6	3.45365	128.806
62	0.79433	79998.6	5116.09	80162.1	3.65921	132.051
63	0.63096	80460.2	5526.98	80649.8	3.92959	135.561
64	0.50119	80923.9	6133.46	81156	4.33433	139.381
65	0.39811	81426	6854.94	81714	4.81216	143.621
66	0.31623	82069	7893.7	82447.7	5.49402	148.387
67	0.25119	82872	8871.81	83345.6	6.11049	153.872
68	0.19953	83737.1	10199.7	84356	6.94478	160.142
69	0.15849	84572.1	11752.6	85384.8	7.91148	167.307
70	0.12589	85621.5	13892.2	86741.2	9.21601	175.817
71	0.1	87071.9	15805.6	88494.8	10.2885	186.022