File: data/20200503/Z_p28_2.txt
Index	Frequency (Hz)	Z' (Ω)	-Z'' (Ω)	Z (Ω)	-Phase (°)	Time (s)
1	1000000	3462.63	6489.43	7355.44	61.9165	268.009
2	794330	4841.77	6778.11	8329.8	54.4608	269.519
3	630960	6409.81	7320.21	9729.91	48.7935	271.024
4	501190	7968.3	8033.81	11315.3	45.2346	272.734
5	398110	9998.9	9296.1	13652.7	42.914	274.354
6	316230	11790.8	9748.24	15298.7	39.5827	275.889
7	251190	13461.1	9733.54	16611.5	35.8702	278.224
8	199530	15345.6	9924.01	18274.9	32.8909	279.614
9	158490	17168.5	9927.47	19832.1	30.0381	281.139
10	125890	18956.5	9719.47	21303	27.1454	282.509
11	100000	20656	9379.53	22685.8	24.422	283.884
12	79433	22228.2	8927.17	23953.9	21.8811	285.249
13	63096	23657.1	8394.66	25102.4	19.5371	287.734
14	50119	24978.8	7797.02	26167.5	17.3355	289.234
15	39811	26139.5	7150.19	27099.8	15.2984	290.839
16	31623	27142.4	6464.59	27901.6	13.3967	292.384
17	25119	27936.9	5870.17	28547	11.8665	293.899
18	19953	28680.3	5340.52	29173.3	10.5482	295.399
19	15849	29334.4	4830.71	29729.5	9.3514	296.879
20	12589	29876.1	4382.33	30195.8	8.34481	298.439
21	10000	30355.3	3967.52	30613.5	7.44649	299.934
22	7943.3	30830.1	3648.11	31045.2	6.74841	301.354
23	6309.6	31247.5	3374.82	31429.3	6.1642	302.754
24	5011.9	31625.8	3145.07	31781.8	5.67919	304.179
25	3981.1	31982	2962.19	32118.9	5.29168	305.514
26	3162.3	32337.5	2812.1	32459.5	4.96999	307.024
27	2511.9	32685.4	2698.46	32796.6	4.71955	308.584
28	1995.3	33003.2	2610.83	33106.3	4.52316	309.924
29	1584.9	33330.9	2546.41	33428	4.3688	311.329
30	1258.9	33661.8	2503.31	33754.8	4.25306	312.604
31	1000	33976.9	2476.83	34067.1	4.16935	313.954
32	794.33	34319.7	2463.67	34408.1	4.10598	315.729
33	630.96	34657.4	2465.45	34745	4.06903	317.149
34	501.19	34990.7	2468.14	35077.6	4.0348	318.554
35	398.11	35352.8	2482.85	35439.8	4.01732	319.875
36	316.23	35703.1	2502.14	35790.7	4.00884	321.23
37	251.19	36068.2	2525.4	36156.5	4.00517	322.81
38	199.53	36452.3	2547.98	36541.3	3.99841	324.235
39	158.49	36806	2566.47	36895.4	3.98877	325.64
40	125.89	37191.2	2584.59	37280.9	3.97537	327.035
41	100	37537.8	2601.67	37627.9	3.96471	328.73
42	79.433	37943.9	2614.05	38033.9	3.94101	330.065
43	63.096	38331.6	2625.23	38421.4	3.91792	331.55
44	50.119	38739	2630.55	38828.2	3.88468	333.02
45	39.811	39101.2	2628.64	39189.4	3.84602	342.325
46	31.623	39520.4	2627.7	39607.6	3.80398	344.095
47	25.119	39923.8	2614.71	40009.4	3.74709	345.86
48	19.953	40321.2	2613.56	40405.8	3.70863	347.74
49	15.849	40686.3	2592.72	40768.8	3.64622	349.875
50	12.589	41084.5	2564.3	41164.4	3.5715	352.15
51	10	41460.2	2537.43	41537.8	3.50222	354.49
52	7.9433	41809.8	2494.63	41884.1	3.41458	356.825
53	6.3096	42182.9	2463.22	42254.8	3.34193	359.19
54	5.0119	42546.3	2427.5	42615.5	3.2655	361.72
55	3.9811	42872.1	2398.63	42939.1	3.20227	364.185
56	3.1623	43176.1	2385.37	43242	3.16223	366.66
57	2.5119	43461.2	2388.24	43526.8	3.14531	369.39
58	1.9953	43737.3	2413.53	43803.8	3.15852	372.17
59	1.5849	43966.6	2476.2	44036.3	3.22349	375.501
60	1.2589	44240.1	2580.85	44315.3	3.3387	378.871
61	1	44465.2	2746.32	44549.9	3.53429	382.301
62	0.79433	44717.6	2957.05	44815.2	3.78331	385.666
63	0.63096	44942	3225.47	45057.6	4.10505	390.586
64	0.50119	45176.5	3650.38	45323.7	4.61961	394.401
65	0.39811	45388.4	4128.76	45575.8	5.19762	398.826
66	0.31623	45610.8	4843.2	45867.2	6.06126	403.661
67	0.25119	46028.7	5620.74	46370.6	6.96214	409.146
68	0.19953	46391.3	6677.13	46869.3	8.19038	415.551
69	0.15849	46806.5	7996.78	47484.7	9.69525	423.346
70	0.12589	47150.2	9388.5	48075.9	11.2614	431.902
71	0.1	47711.4	11630.1	49108.4	13.6992	442.067