File: data/20200503/Z_p23_1.txt
Index	Frequency (Hz)	Z' (Ω)	-Z'' (Ω)	Z (Ω)	-Phase (°)	Time (s)
1	1000000	3767.15	8469.04	9269.09	66.0198	134.066
2	794330	5840.93	8876.23	10625.6	56.6534	135.621
3	630960	8067.21	9654.12	12581	50.1171	137.291
4	501190	10234.9	10615.7	14746.1	46.0462	138.926
5	398110	13182	12707.3	18309.6	43.9496	140.406
6	316230	15639.8	13482.3	20648.9	40.763	141.901
7	251190	17909.8	13575.8	22473.6	37.1623	146.287
8	199530	20428.5	13935.4	24728.9	34.3	148.957
9	158490	22983.6	14073.9	26950.3	31.481	150.192
10	125890	25480.4	14008.2	29077.1	28.8004	151.557
11	100000	27903.5	13758.2	31111	26.2462	153.067
12	79433	30227.6	13370.4	33052.7	23.861	154.727
13	63096	32453.7	12836.2	34900	21.58	156.092
14	50119	34536.2	12177.8	36620.3	19.4232	157.372
15	39811	36508.5	11374.8	38239.4	17.3053	158.732
16	31623	38219.9	10412.8	39613	15.2401	160.332
17	25119	39621	9566.96	40759.6	13.5749	162.527
18	19953	40961.4	8737.25	41882.8	12.041	163.807
19	15849	42155	7909.74	42890.7	10.6271	165.237
20	12589	43166	7108.95	43747.5	9.35203	166.872
21	10000	43975.9	6289.73	44423.4	8.13964	168.632
22	7943.3	44740.9	5614.28	45091.7	7.15234	170.007
23	6309.6	45409.6	5008.52	45684.9	6.29408	171.422
24	5011.9	45996.8	4464.76	46213	5.54415	172.727
25	3981.1	46480.1	3984.29	46650.5	4.89944	174.097
26	3162.3	46914.6	3562.35	47049.6	4.34229	175.572
27	2511.9	47285.3	3196.24	47393.2	3.86702	176.967
28	1995.3	47621	2880.98	47708.1	3.46207	178.397
29	1584.9	47930	2608.46	48000.9	3.1151	179.822
30	1258.9	48214.4	2375.15	48272.9	2.82024	181.392
31	1000	48480.4	2178.2	48529.3	2.57255	182.717
32	794.33	48719.3	2007.22	48760.6	2.35924	184.092
33	630.96	48936.2	1867.14	48971.8	2.18504	185.377
34	501.19	49142.8	1744.22	49173.8	2.03274	187.102
35	398.11	49339.4	1645.32	49366.8	1.90994	188.277
36	316.23	49552.6	1571.79	49577.5	1.81679	189.642
37	251.19	49746.9	1509.99	49769.9	1.73859	191.232
38	199.53	49894.9	1463.96	49916.4	1.68062	192.792
39	158.49	50078.6	1433.96	50099.2	1.64017	194.377
40	125.89	50218.8	1414.62	50238.7	1.61355	195.862
41	100	50386.6	1418.18	50406.6	1.61222	197.257
42	79.433	50543.4	1435.25	50563.7	1.62656	198.897
43	63.096	50727.7	1473.97	50749.1	1.66435	200.668
44	50.119	50894.4	1516.18	50917	1.70637	202.388
45	39.811	51053.8	1590.31	51078.6	1.78416	211.868
46	31.623	51233.8	1679.61	51261.3	1.87767	213.498
47	25.119	51453.9	1802.01	51485.5	2.00578	215.253
48	19.953	51693.1	1959.4	51730.2	2.17073	217.408
49	15.849	51877.5	2123.79	51920.9	2.3443	219.553
50	12.589	52104.1	2324.15	52155.9	2.55404	221.548
51	10	52402.2	2567.23	52465	2.80473	224.068
52	7.9433	52722.4	2832.97	52798.4	3.07576	226.468
53	6.3096	53052.4	3144.3	53145.5	3.39183	228.883
54	5.0119	53426	3494.07	53540.2	3.74182	231.483
55	3.9811	53845	3884.9	53984.9	4.12673	234.083
56	3.1623	54245.9	4339.36	54419.2	4.57359	236.838
57	2.5119	54712.8	4867.5	54928.9	5.08391	239.473
58	1.9953	55196.8	5484.61	55468.7	5.67454	242.393
59	1.5849	55741.3	6190.57	56084	6.33724	245.303
60	1.2589	56302.1	7064.72	56743.6	7.15203	248.438
61	1	56948.3	8130.96	57525.9	8.12565	253.663
62	0.79433	57695.4	9351.05	58448.3	9.20623	256.809
63	0.63096	58322.5	10848.9	59323	10.5375	260.454
64	0.50119	59209.4	12792.2	60575.6	12.1914	264.329
65	0.39811	60099.3	15075.7	61961.3	14.0819	268.564
66	0.31623	61461	17862.1	64004	16.2052	273.414
67	0.25119	62667.3	20891.6	66058	18.437	278.919
68	0.19953	64382	24644.9	68937.7	20.9464	285.069
69	0.15849	66283.9	29285.9	72465.3	23.8371	292.484
70	0.12589	68925.7	35214.9	77400.5	27.063	301.104
71	0.1	72047.3	40842.2	82818.4	29.548	311.31