File: data/20200503/Z_p22_2.txt
Index	Frequency (Hz)	Z' (Ω)	-Z'' (Ω)	Z (Ω)	-Phase (°)	Time (s)
1	1000000	3992.94	7289.79	8311.71	61.2885	55.9658
2	794330	5703.75	7423.56	9361.74	52.4638	57.2709
3	630960	7480.76	7913.08	10889.4	46.6087	58.7459
4	501190	9342.98	8419.03	12576.6	42.0222	60.3759
5	398110	11799.6	9468.83	15129.1	38.7461	61.9609
6	316230	13706.6	9620.81	16746.1	35.0653	63.596
7	251190	15346.9	9266.26	17927.4	31.123	67.096
8	199530	17162.7	9089.99	19421.2	27.9074	68.4711
9	158490	18813.5	8713.02	20733.2	24.8501	69.9711
10	125890	20373.4	8194.76	21959.7	21.9114	71.4311
11	100000	21723.6	7572.07	23005.4	19.2167	72.8961
12	79433	22894	6891.63	23908.7	16.7531	74.1762
13	63096	23905.9	6197.75	24696.2	14.5343	75.5712
14	50119	24746.7	5507.05	25352.1	12.546	77.0562
15	39811	25457.2	4836.82	25912.6	10.7579	78.5312
16	31623	26001.1	4182.8	26335.4	9.13888	79.8913
17	25119	26435.1	3670.9	26688.7	7.90579	81.3113
18	19953	26824.1	3221.17	27016.8	6.84758	82.7213
19	15849	27143.2	2806.72	27288	5.90364	84.2513
20	12589	27424.3	2454.74	27533.9	5.11489	85.5414
21	10000	27615.7	2140.52	27698.5	4.43219	86.8614
22	7943.3	27844.4	1895.45	27908.8	3.89429	88.1814
23	6309.6	28026.3	1688.16	28077.1	3.44704	89.7965
24	5011.9	28205.8	1509.83	28246.2	3.06407	91.2515
25	3981.1	28352.9	1359.94	28385.5	2.74608	92.7065
26	3162.3	28481.8	1231.03	28508.4	2.47487	94.0615
27	2511.9	28621.4	1122.73	28643.4	2.24639	95.3916
28	1995.3	28743.7	1030.53	28762.2	2.05331	96.6416
29	1584.9	28857.7	950.654	28873.3	1.8868	98.0916
30	1258.9	28974.8	882.596	28988.2	1.74474	99.5816
31	1000	29082.4	823.755	29094.1	1.62246	100.982
32	794.33	29186.6	771.578	29196.8	1.51432	102.327
33	630.96	29273.9	723.932	29282.8	1.41661	103.672
34	501.19	29377.7	681.671	29385.6	1.32923	105.272
35	398.11	29453	642.483	29460	1.24964	106.547
36	316.23	29553.3	609.136	29559.5	1.18078	107.807
37	251.19	29617.9	576.141	29623.6	1.1144	109.192
38	199.53	29698.5	544.999	29703.5	1.05132	110.652
39	158.49	29760.5	518.412	29765	0.997963	112.212
40	125.89	29815	490.133	29819.1	0.941807	113.807
41	100	29895.6	467.1	29899.3	0.895138	115.372
42	79.433	29942.9	445.847	29946.2	0.853065	116.872
43	63.096	29995.7	425.143	29998.7	0.812026	118.477
44	50.119	30053.1	411.013	30055.9	0.78354	120.117
45	39.811	30106	398.014	30108.6	0.757431	129.457
46	31.623	30151.2	388.823	30153.7	0.738831	131.147
47	25.119	30204.7	379.737	30207.1	0.720291	133.047
48	19.953	30248	389.971	30250.5	0.738642	135.187
49	15.849	30278.9	399.519	30281.5	0.755953	137.222
50	12.589	30317	410.922	30319.8	0.77655	139.257
51	10	30368.2	428.602	30371.2	0.808593	141.712
52	7.9433	30414.6	461.858	30418.1	0.869993	144.137
53	6.3096	30456.2	495.177	30460.2	0.931469	146.543
54	5.0119	30511.9	541.11	30516.7	1.016	148.993
55	3.9811	30575.6	600.104	30581.5	1.12439	151.513
56	3.1623	30624.5	664.942	30631.7	1.24385	154.193
57	2.5119	30685.7	751.124	30694.9	1.4022	156.783
58	1.9953	30750.7	853.388	30762.5	1.58966	159.573
59	1.5849	30829.6	975.427	30845.1	1.81219	162.298
60	1.2589	30920.5	1128.44	30941.1	2.09008	165.273
61	1	31024.8	1306.67	31052.3	2.4117	168.518
62	0.79433	31126.3	1506.94	31162.8	2.77174	171.938
63	0.63096	31271.1	1757	31320.5	3.21583	175.483
64	0.50119	31433.7	2032.45	31499.3	3.6995	179.288
65	0.39811	31591.5	2383.98	31681.4	4.31551	183.718
66	0.31623	31789.9	2781.4	31911.3	5.00027	188.608
67	0.25119	31997.9	3299.98	32167.7	5.88816	194.078
68	0.19953	32235.3	3859.44	32465.5	6.82735	200.238
69	0.15849	32523	4559.36	32841.1	7.98022	207.529
70	0.12589	32833.5	5295.61	33257.8	9.16214	216.089
71	0.1	33039.2	6392.1	33651.8	10.9498	226.284