File: data/20200503/Z_p27_3.txt
Index	Frequency (Hz)	Z' (Ω)	-Z'' (Ω)	Z (Ω)	-Phase (°)	Time (s)
1	1000000	3316.31	5977.07	6835.44	60.9768	695.489
2	794330	4570.34	6282.88	7769.34	53.9668	698.51
3	630960	5995.14	6783.8	9053.27	48.5316	701.096
4	501190	7417.36	7454.95	10516.3	45.1448	703.952
5	398110	9216.69	8491.43	12532	42.6547	706.648
6	316230	10857.5	8926.61	14056	39.4257	708.97
7	251190	12373	8888	15234.4	35.6911	713.747
8	199530	14104.6	9042.4	16754.3	32.6637	715.988
9	158490	15815.3	8977.75	18185.8	29.582	718.534
10	125890	17406.9	8862.66	19533.3	26.9827	721.69
11	100000	18952.7	8556.44	20794.7	24.2974	724.931
12	79433	20376.5	8141.93	21943	21.7803	727.937
13	63096	21700.6	7655.68	23011.4	19.4322	731.313
14	50119	22873.9	7110	23953.4	17.2671	734.084
15	39811	23932.4	6526.76	24806.5	15.2545	737.08
16	31623	24836.2	5910.84	25529.9	13.3869	740.046
17	25119	25555.2	5375.46	26114.5	11.8788	742.292
18	19953	26251.2	4898.91	26704.4	10.5708	744.703
19	15849	26855.1	4448.34	27221.1	9.40519	747.669
20	12589	27378.8	4049.54	27676.7	8.4135	750.385
21	10000	27810.5	3674.9	28052.2	7.5275	752.591
22	7943.3	28249.6	3384.19	28451.6	6.83125	754.937
23	6309.6	28633.8	3137.11	28805.1	6.25238	757.213
24	5011.9	29010.3	2932.5	29158.1	5.77213	759.354
25	3981.1	29332.9	2760.6	29462.5	5.37642	761.381
26	3162.3	29671.7	2625.03	29787.6	5.05575	763.387
27	2511.9	29990.5	2517.9	30096	4.7991	765.573
28	1995.3	30296.8	2437.02	30394.7	4.59887	767.559
29	1584.9	30592.4	2372.75	30684.3	4.43499	770.03
30	1258.9	30898.8	2331.27	30986.6	4.31472	771.946
31	1000	31207.5	2302.42	31292.3	4.2195	773.892
32	794.33	31514.6	2285.26	31597.3	4.1475	775.983
33	630.96	31839.3	2278.73	31920.7	4.09367	777.969
34	501.19	32159.2	2281.26	32240	4.05756	780.025
35	398.11	32482.5	2288.76	32563.1	4.03046	781.996
36	316.23	32804.6	2300	32885.1	4.01058	783.997
37	251.19	33122.9	2315.89	33203.7	3.99951	785.968
38	199.53	33481.5	2335.76	33562.8	3.99065	787.919
39	158.49	33801.6	2349.58	33883.2	3.97628	789.945
40	125.89	34139.2	2368.03	34221.2	3.96791	791.966
41	100	34499.9	2382.82	34582.1	3.951	793.972
42	79.433	34840	2394.58	34922.2	3.93179	796.113
43	63.096	35202.4	2408.84	35284.7	3.91455	798.359
44	50.119	35569.1	2413.63	35650.9	3.882	800.505
45	39.811	35898.1	2420.38	35979.6	3.85725	810.281
46	31.623	36264.4	2420.44	36345.1	3.81849	812.542
47	25.119	36655.2	2413.95	36734.6	3.7678	814.914
48	19.953	37012.4	2420.98	37091.5	3.74239	817.48
49	15.849	37364.8	2412.99	37442.6	3.69499	820.151
50	12.589	37714.8	2391.05	37790.6	3.62759	822.842
51	10	38079.4	2376.34	38153.5	3.5709	825.788
52	7.9433	38441.1	2344.53	38512.5	3.49016	828.744
53	6.3096	38763.6	2318.91	38832.9	3.42346	831.8
54	5.0119	39081.7	2294.24	39149	3.35961	834.881
55	3.9811	39393.6	2276.35	39459.3	3.30714	837.912
56	3.1623	39697.4	2267.87	39762.2	3.26969	841.073
57	2.5119	40016.1	2276.45	40080.8	3.25596	844.304
58	1.9953	40263.5	2301.1	40329.2	3.27095	847.565
59	1.5849	40540.6	2355	40609	3.32456	851.051
60	1.2589	40765.6	2439	40838.5	3.42391	854.697
61	1	41021.6	2576.24	41102.4	3.59357	858.583
62	0.79433	41290	2751.05	41381.5	3.81185	862.459
63	0.63096	41523.9	2965.01	41629.6	4.08427	866.645
64	0.50119	41766.8	3308.39	41897.7	4.52899	871.147
65	0.39811	42045	3686.15	42206.3	5.0104	875.973
66	0.31623	42278.3	4238.77	42490.2	5.72528	881.404
67	0.25119	42622.9	4876.39	42900.9	6.52671	887.495
68	0.19953	42831	5654.26	43202.6	7.52032	894.431
69	0.15849	43159.7	6621.1	43664.7	8.7217	902.252
70	0.12589	43505.5	7905.01	44217.8	10.2984	911.558
71	0.1	44032.1	9551.09	45056.1	12.2385	922.739