File: data/20200503/Z_p26_1.txt
Index	Frequency (Hz)	Z' (Ω)	-Z'' (Ω)	Z (Ω)	-Phase (°)	Time (s)
1	1000000	3646.8	9097.93	9801.61	68.1572	49.1336
2	794330	5937.08	9669.28	11346.5	58.4495	50.5336
3	630960	8383.69	10651.5	13555.1	51.7941	51.9987
4	501190	10893.5	11954	16173	47.6574	53.5337
5	398110	14018.3	14539	20196.4	46.0447	55.0187
6	316230	16820	15495.2	22869.5	42.6524	56.7338
7	251190	19489.4	15716.8	25037.1	38.8837	60.1588
8	199530	22519.8	16189.4	27735.2	35.7121	61.4589
9	158490	25465.2	16191.5	30176.8	32.4494	63.2639
10	125890	28400.3	16347.4	32769.1	29.925	64.6839
11	100000	31246.1	16082.8	35142.2	27.2356	66.2739
12	79433	34026	15613	37437.1	24.6483	67.839
13	63096	36629	14965.3	39568.2	22.2232	69.289
14	50119	39115.3	14170.5	41603	19.9141	70.664
15	39811	41433.3	13178	43478.5	17.6434	72.039
16	31623	43385.7	11970.4	45006.7	15.4245	73.4541
17	25119	44981.4	10950.8	46295.2	13.6825	74.9791
18	19953	46501.5	9948.07	47553.7	12.0753	76.5291
19	15849	47843.4	8900.7	48664.3	10.5387	78.0292
20	12589	48948.1	7952.09	49589.8	9.22763	79.6592
21	10000	49856.8	7005.8	50346.6	7.99875	81.1642
22	7943.3	50667.5	6206.54	51046.2	6.98369	82.7242
23	6309.6	51379.4	5510.9	51674.1	6.12208	84.1243
24	5011.9	51995	4883.75	52223.9	5.36589	85.5493
25	3981.1	52495.4	4338.12	52674.4	4.72407	86.9093
26	3162.3	52946.9	3863.85	53087.7	4.17381	88.3143
27	2511.9	53340.2	3455.4	53452.1	3.70646	89.7694
28	1995.3	53707	3110.93	53797.1	3.3151	91.1944
29	1584.9	54017.8	2808.85	54090.8	2.97662	92.7844
30	1258.9	54321.2	2559.02	54381.5	2.69716	94.1945
31	1000	54592.1	2349.72	54642.7	2.46456	95.6345
32	794.33	54823.4	2169.76	54866.3	2.26643	97.0945
33	630.96	55067.6	2023.96	55104.8	2.1049	98.5645
34	501.19	55305.7	1906.37	55338.6	1.97418	100.275
35	398.11	55508.2	1807.34	55537.6	1.86488	101.69
36	316.23	55726.4	1727.89	55753.1	1.77598	103.16
37	251.19	55918.1	1673.21	55943.1	1.71393	104.68
38	199.53	56129.9	1638.31	56153.8	1.67186	106.035
39	158.49	56300.2	1626.9	56323.7	1.65521	107.455
40	125.89	56481	1624.62	56504.4	1.6476	110.985
41	100	56646.3	1642.6	56670.1	1.66097	112.985
42	79.433	56804.7	1687.62	56829.7	1.70171	114.57
43	63.096	57017.4	1760.1	57044.5	1.76814	116.16
44	50.119	57203.2	1847.78	57233	1.85013	118.2
45	39.811	57422.6	1969.29	57456.3	1.96417	127.535
46	31.623	57649.2	2119.97	57688.1	2.10602	129.255
47	25.119	57861.4	2302.07	57907.2	2.27836	130.965
48	19.953	58128.9	2556.7	58185.1	2.51844	132.85
49	15.849	58404.7	2832.41	58473.3	2.77646	135.04
50	12.589	58712.7	3154.74	58797.4	3.07565	137.11
51	10	59048.8	3535.07	59154.5	3.42603	142.115
52	7.9433	59456.7	3977.19	59589.6	3.82694	144.855
53	6.3096	59899	4486.13	60066.7	4.28317	147.55
54	5.0119	60416.1	5066.45	60628.2	4.79357	150.165
55	3.9811	60982.1	5726.49	61250.4	5.36459	152.926
56	3.1623	61620.3	6471.82	61959.3	5.99564	155.526
57	2.5119	62340.7	7326.51	62769.8	6.70286	158.261
58	1.9953	63159.3	8311.27	63703.8	7.4966	162.456
59	1.5849	64072.1	9401.52	64758.2	8.34764	165.771
60	1.2589	65039.5	10689	65912	9.33291	168.731
61	1	66124.3	12176	67236	10.4334	172.156
62	0.79433	67431.6	13873.8	68844.1	11.6261	175.641
63	0.63096	68618.7	15768	70407.1	12.9414	179.351
64	0.50119	69880	18226.6	72217.9	14.6186	183.316
65	0.39811	71537.9	21110.4	74587.7	16.441	187.666
66	0.31623	73170.6	24732	77237.3	18.6755	193.676
67	0.25119	75629.7	28920.7	80970.7	20.9268	199.156
68	0.19953	77848.7	34321.9	85078.8	23.7917	205.857
69	0.15849	80667.9	40295.7	90172.3	26.5433	213.387
70	0.12589	84355.7	46886.9	96510.5	29.0663	222.037
71	0.1	87075.8	55215.2	103106	32.379	232.322