File: data/20200503/Z_p22_3.txt
Index	Frequency (Hz)	Z' (Ω)	-Z'' (Ω)	Z (Ω)	-Phase (°)	Time (s)
1	1000000	3927.04	7230.97	8228.52	61.4942	34.0194
2	794330	5659.88	7389.36	9307.89	52.5497	35.4295
3	630960	7501.36	7871.64	10873.5	46.3798	36.8395
4	501190	9400.16	8341.29	12567.4	41.5845	38.3545
5	398110	11779.2	9474.08	15116.4	38.81	39.8545
6	316230	13684.5	9611.17	16722.5	35.0819	41.3546
7	251190	15349.5	9255.32	17924	31.0887	44.5146
8	199530	17145.3	9069.42	19396.3	27.8777	45.9947
9	158490	18833.6	8719.8	20754.3	24.8437	47.4847
10	125890	20350.7	8176.33	21931.8	21.8889	48.8397
11	100000	21700.1	7557.3	22978.4	19.2012	50.3447
12	79433	22868.3	6870.81	23878.2	16.723	51.7498
13	63096	23871.9	6182.82	24659.6	14.5205	53.0948
14	50119	24719.6	5495.32	25323.1	12.5334	54.3698
15	39811	25432.9	4826.72	25886.8	10.746	55.7398
16	31623	25972.9	4173.66	26306.1	9.12899	57.2299
17	25119	26394.7	3665.91	26648.1	7.90711	58.8099
18	19953	26778.7	3206.24	26970	6.82757	60.2449
19	15849	27112.9	2804.72	27257.6	5.90601	61.7249
20	12589	27386.2	2455.67	27496.1	5.12391	63.045
21	10000	27591.3	2136.39	27673.9	4.42756	64.37
22	7943.3	27807.7	1892.85	27872	3.89409	65.64
23	6309.6	27995.2	1685.12	28045.8	3.44467	67.165
24	5011.9	28163.7	1507.29	28204	3.06349	68.6651
25	3981.1	28312.4	1357.94	28345	2.74597	70.1301
26	3162.3	28452.6	1228.74	28479.1	2.47281	71.4201
27	2511.9	28575.5	1120.23	28597.4	2.24499	72.7102
28	1995.3	28711.4	1028.98	28729.9	2.05252	73.9602
29	1584.9	28821.8	952.818	28837.5	1.89345	75.3502
30	1258.9	28947.4	883.093	28960.8	1.74737	76.7202
31	1000	29037.9	822.08	29049.6	1.62164	78.0153
32	794.33	29153.4	770.619	29163.6	1.51416	79.3903
33	630.96	29237.1	721.711	29246	1.41405	80.6953
34	501.19	29335.9	680.917	29343.8	1.32966	82.3403
35	398.11	29420.3	642.271	29427.4	1.25062	83.9104
36	316.23	29494.3	607.099	29500.5	1.17919	85.2754
37	251.19	29584.7	576.662	29590.4	1.11666	86.5704
38	199.53	29652.7	543.881	29657.7	1.05079	87.8404
39	158.49	29724	517.689	29728.5	0.997793	89.2455
40	125.89	29780	489.98	29784.1	0.94262	90.7155
41	100	29858	466.345	29861.7	0.894817	92.0405
42	79.433	29893	444.807	29896.3	0.852498	93.4105
43	63.096	29960.3	427.489	29963.3	0.817471	94.8706
44	50.119	30020.5	410.36	30023.3	0.783145	96.3306
45	39.811	30067.3	397.657	30069.9	0.757726	105.401
46	31.623	30119.4	386.002	30121.9	0.734246	106.986
47	25.119	30157.3	380.737	30159.7	0.723322	108.671
48	19.953	30207.4	390.593	30209.9	0.740816	110.501
49	15.849	30247	399.141	30249.6	0.756034	112.406
50	12.589	30289.7	409.908	30292.5	0.77533	114.326
51	10	30336.9	429.246	30340	0.81064	116.621
52	7.9433	30373	459.155	30376.5	0.866085	119.011
53	6.3096	30422.8	495.387	30426.9	0.932887	121.371
54	5.0119	30472.6	540.599	30477.4	1.01635	123.806
55	3.9811	30530.6	595.894	30536.4	1.11815	126.201
56	3.1623	30597.1	667.355	30604.4	1.24948	128.591
57	2.5119	30644.7	754.118	30653.9	1.40968	131.126
58	1.9953	30715.1	858.26	30727.1	1.60057	133.681
59	1.5849	30795.4	982.389	30811	1.82715	136.486
60	1.2589	30885.5	1124.64	30906	2.0854	139.366
61	1	30983.6	1312	31011.3	2.42475	142.551
62	0.79433	31105.7	1513.7	31142.5	2.78598	145.767
63	0.63096	31247.2	1744.57	31295.9	3.19557	149.232
64	0.50119	31369.4	2044.8	31436	3.72952	153.007
65	0.39811	31534.3	2379.79	31624	4.31575	157.237
66	0.31623	31754	2829.39	31879.8	5.0918	161.877
67	0.25119	31947.9	3258.92	32113.7	5.82443	167.327
68	0.19953	32184.2	3816.68	32409.7	6.76304	173.522
69	0.15849	32428.5	4513.82	32741.1	7.92426	180.862
70	0.12589	32793.7	5401.25	33235.5	9.35286	189.432
71	0.1	33039.6	6271.2	33629.5	10.7474	199.552