File: data/20200503/Z_p21_3.txt
Index	Frequency (Hz)	Z' (Ω)	-Z'' (Ω)	Z (Ω)	-Phase (°)	Time (s)
1	1000000	3629.12	6794.39	7702.87	61.8918	53.0648
2	794330	5245.12	7008.9	8754.19	53.1906	54.6048
3	630960	6916.6	7550.92	10239.9	47.5105	56.1798
4	501190	8532.85	8125.27	11782.6	43.5984	57.6298
5	398110	10795.6	9211.3	14191.3	40.4722	59.1899
6	316230	12595	9507.67	15780.7	37.0482	60.6599
7	251190	14223.9	9349.14	17021.3	33.3163	63.0999
8	199530	16029.4	9343.26	18553.7	30.2372	64.525
9	158490	17778.2	9138.06	19989.3	27.2033	65.855
10	125890	19401.8	8781.96	21296.8	24.3533	67.13
11	100000	20910	8300.62	22497.3	21.6515	68.535
12	79433	22258	7728.34	23561.5	19.1479	69.9101
13	63096	23468.6	7093.92	24517.3	16.8187	71.4201
14	50119	24523	6427.4	25351.3	14.6867	72.9901
15	39811	25430.2	5739.62	26069.8	12.7186	74.4752
16	31623	26154.6	5049.24	26637.5	10.9267	75.7652
17	25119	26726.8	4475.11	27098.9	9.50537	77.1602
18	19953	27256.1	3958.69	27542.1	8.26388	78.5602
19	15849	27701.1	3479.42	27918.7	7.1592	80.0603
20	12589	28073.6	3054.2	28239.2	6.20895	81.3453
21	10000	28342.6	2654.55	28466.7	5.35068	82.6103
22	7943.3	28620.5	2341.82	28716.1	4.67771	84.0003
23	6309.6	28868.3	2074.01	28942.8	4.10928	85.4754
24	5011.9	29065.2	1842.87	29123.6	3.62795	86.8454
25	3981.1	29248.6	1645.62	29294.9	3.22024	88.0854
26	3162.3	29424.5	1478.26	29461.6	2.87606	89.4554
27	2511.9	29569.6	1337.69	29599.8	2.59023	90.8755
28	1995.3	29716	1217.79	29740.9	2.34673	92.3455
29	1584.9	29841.3	1113.31	29862.1	2.13658	93.5805
30	1258.9	29976.3	1028.9	29994	1.96583	94.9055
31	1000	30096.1	954.136	30111.2	1.81584	96.1856
32	794.33	30204	892.049	30217.2	1.69169	97.6606
33	630.96	30310.1	836.786	30321.7	1.58139	98.8956
34	501.19	30412.2	789.79	30422.5	1.48761	100.336
35	398.11	30521.8	750.09	30531.1	1.40779	101.606
36	316.23	30595.4	716.482	30603.8	1.3415	102.966
37	251.19	30690.1	686.564	30697.8	1.28154	104.251
38	199.53	30772.8	663.725	30779.9	1.2356	105.701
39	158.49	30852.3	644.32	30859	1.19639	107.091
40	125.89	30935	629.292	30941.4	1.16537	108.471
41	100	31007.2	620.566	31013.4	1.14654	109.886
42	79.433	31073.1	619.155	31079.2	1.14151	111.376
43	63.096	31157.4	620.566	31163.6	1.14101	113.026
44	50.119	31228.5	627.134	31234.8	1.15047	114.631
45	39.811	31312.9	645.378	31319.5	1.18074	123.941
46	31.623	31379.6	668.364	31386.7	1.22018	125.596
47	25.119	31463.4	698.696	31471.1	1.27214	127.516
48	19.953	31539.9	760.359	31549	1.38101	129.311
49	15.849	31606	815.504	31616.6	1.47803	131.276
50	12.589	31696.7	890.657	31709.2	1.60955	133.451
51	10	31785.5	981.998	31800.7	1.76956	135.891
52	7.9433	31904	1095.93	31922.8	1.96739	138.276
53	6.3096	32011.4	1222.53	32034.7	2.1871	140.656
54	5.0119	32132.3	1381.19	32162	2.46132	143.191
55	3.9811	32286.3	1562.82	32324.1	2.77125	145.616
56	3.1623	32459.2	1778.82	32508	3.13676	148.302
57	2.5119	32654.6	2031.85	32717.7	3.56049	150.937
58	1.9953	32871	2317.04	32952.6	4.03205	153.627
59	1.5849	33157.5	2641.55	33262.6	4.55494	156.492
60	1.2589	33441.8	3014.77	33577.4	5.15128	159.412
61	1	33784	3445.02	33959.2	5.82245	162.892
62	0.79433	34177.4	3882.04	34397.1	6.48018	166.097
63	0.63096	34629.2	4424.35	34910.6	7.28088	169.627
64	0.50119	35101.4	4992.9	35454.8	8.09556	173.517
65	0.39811	35601.8	5728.66	36059.8	9.14105	177.982
66	0.31623	36196.9	6504.38	36776.7	10.187	182.772
67	0.25119	36782.9	7507.75	37541.3	11.5362	188.182
68	0.19953	37410.6	8541.27	38373.3	12.8608	194.542
69	0.15849	38151.6	9899.28	39414.9	14.5459	201.928
70	0.12589	39131.9	11434.6	40768.3	16.2887	210.558
71	0.1	39754.9	13118.1	41863.3	18.2616	220.898