File: data/20200503/Z_p28_3.txt
Index	Frequency (Hz)	Z' (Ω)	-Z'' (Ω)	Z (Ω)	-Phase (°)	Time (s)
1	1000000	3447.24	6478.41	7338.48	61.982	503.194
2	794330	4851.2	6771.02	8329.51	54.3797	506.1
3	630960	6392.86	7327.11	9723.94	48.8955	508.786
4	501190	7929.88	8052.63	11301.7	45.44	511.377
5	398110	9987.54	9297.29	13645.2	42.9501	513.753
6	316230	11801	9753.2	15309.7	39.5729	516.084
7	251190	13458	9717.24	16599.5	35.8309	522.252
8	199530	15318.3	9912.38	18245.7	32.9067	524.558
9	158490	17102.1	9884.33	19753.1	30.0262	526.859
10	125890	18956.8	9695.5	21292.3	27.0876	529.26
11	100000	20653.1	9361.62	22675.8	24.3838	531.461
12	79433	22213.5	8918.43	23936.9	21.8749	533.697
13	63096	23649	8374.69	25088	19.5003	536.083
14	50119	24942.9	7777.59	26127.4	17.3183	538.504
15	39811	26106	7131.74	27062.6	15.2795	540.755
16	31623	27101.6	6446.49	27857.7	13.38	542.991
17	25119	27889.5	5860.56	28498.6	11.8672	545.158
18	19953	28623.4	5322.71	29114	10.5342	547.284
19	15849	29295.5	4816.96	29688.9	9.33739	549.68
20	12589	29850.6	4377.29	30169.8	8.3424	551.986
21	10000	30317.6	3959.75	30575.1	7.44123	554.287
22	7943.3	30781.7	3638.27	30995.9	6.74086	556.588
23	6309.6	31206.8	3369.07	31388.1	6.16177	558.779
24	5011.9	31579.5	3137.67	31735	5.67416	561.055
25	3981.1	31951	2955.84	32087.4	5.28548	563.296
26	3162.3	32284	2807.03	32405.8	4.96926	565.577
27	2511.9	32633.1	2693.22	32744.1	4.71794	568.003
28	1995.3	32955.1	2605.69	33057.9	4.52085	570.339
29	1584.9	33271.9	2540.3	33368.7	4.36606	572.545
30	1258.9	33600.9	2496.89	33693.5	4.24985	574.786
31	1000	33931.8	2472.76	34021.8	4.16803	577.132
32	794.33	34271.6	2462.22	34359.9	4.10932	579.383
33	630.96	34602.5	2458.78	34689.8	4.06448	581.609
34	501.19	34943.6	2467.15	35030.6	4.0386	583.805
35	398.11	35306.2	2480.79	35393.2	4.01929	585.796
36	316.23	35643.3	2497.49	35730.7	4.0081	587.967
37	251.19	36027	2520.34	36115.1	4.00171	590.263
38	199.53	36377.5	2540.21	36466.1	3.99443	592.394
39	158.49	36765.7	2564.52	36855.1	3.99009	594.685
40	125.89	37128.6	2581.09	37218.2	3.97667	597.026
41	100	37489.4	2596.44	37579.2	3.96185	599.418
42	79.433	37879.9	2610.04	37969.7	3.94162	601.734
43	63.096	38283.3	2623.27	38373.1	3.91993	603.99
44	50.119	38658.1	2625.2	38747.1	3.88489	606.391
45	39.811	39059.6	2628.35	39147.9	3.84967	616.527
46	31.623	39471.9	2621.32	39558.8	3.79942	619.383
47	25.119	39856.5	2609.75	39941.9	3.7463	622.004
48	19.953	40259.3	2610.93	40343.9	3.7106	624.78
49	15.849	40656	2599.65	40739	3.65865	627.816
50	12.589	41027.7	2569.76	41108.1	3.58403	630.692
51	10	41436.2	2537.31	41513.8	3.50408	634.003
52	7.9433	41757.7	2501.46	41832.5	3.42816	637.474
53	6.3096	42147	2465.57	42219.1	3.34795	640.82
54	5.0119	42476.2	2431.81	42545.7	3.27667	644.081
55	3.9811	42815.7	2406.86	42883.3	3.21747	647.292
56	3.1623	43101.8	2386.2	43167.8	3.16877	650.613
57	2.5119	43410.3	2393.12	43476.3	3.1554	654.3
58	1.9953	43669.4	2425.02	43736.7	3.17845	657.791
59	1.5849	43956.8	2484.16	44026.9	3.23455	661.522
60	1.2589	44178.9	2592.33	44254.9	3.35815	665.363
61	1	44434.2	2755.12	44519.5	3.54805	669.789
62	0.79433	44665	2977.2	44764.1	3.81348	673.995
63	0.63096	44903.5	3279.99	45023.2	4.17777	678.451
64	0.50119	45146.9	3662.13	45295.2	4.63744	683.117
65	0.39811	45386	4197.85	45579.8	5.28437	688.223
66	0.31623	45600.6	4900.8	45863.2	6.13416	693.889
67	0.25119	45900.3	5799.03	46265.2	7.20058	700.21
68	0.19953	46355.6	6684.61	46835.1	8.20565	707.177
69	0.15849	46784.6	8054.36	47472.8	9.7682	715.443
70	0.12589	47296.7	9653.16	48271.7	11.5355	724.969
71	0.1	47808.8	11389.8	49146.8	13.4002	736.23