File: data/20200503/Z_p25_2.txt
Index	Frequency (Hz)	Z' (Ω)	-Z'' (Ω)	Z (Ω)	-Phase (°)	Time (s)
1	1000000	3506.77	8333.67	9041.43	67.1789	342.476
2	794330	5457.15	8899.08	10439.1	58.4823	343.831
3	630960	7612.87	9876.03	12469.6	52.3734	345.286
4	501190	9765.27	11090.8	14777.2	48.6366	346.856
5	398110	12593.2	13481.2	18448.1	46.9505	348.331
6	316230	15073.7	14509.7	20922.4	43.9079	350.431
7	251190	17481.3	14870.1	22950.3	40.3855	351.776
8	199530	20221.7	15582.4	25528.9	37.6171	353.231
9	158490	23045	16067.9	28093.6	34.8857	355.766
10	125890	25841.2	16340.6	30574.3	32.3071	357.071
11	100000	28696.5	16415.2	33059.8	29.7708	358.556
12	79433	31522.9	16328.7	35501	27.3839	359.951
13	63096	34272.3	16063.2	37849.9	25.1122	361.426
14	50119	36965.9	15595.1	40120.9	22.8738	362.906
15	39811	39586.3	14951.9	42315.9	20.6917	364.346
16	31623	41999.4	14072.9	44294.4	18.5246	365.711
17	25119	44087	13145.9	46005.2	16.6036	367.076
18	19953	46063.5	12279.2	47672.1	14.9263	368.471
19	15849	47872	11317.7	49191.6	13.3015	369.841
20	12589	49410.1	10311.7	50474.7	11.7883	371.376
21	10000	50740.5	9319.04	51589.2	10.407	372.736
22	7943.3	51978.3	8446.34	52660	9.22975	374.097
23	6309.6	53038.5	7627.44	53584.2	8.18356	375.497
24	5011.9	53989.1	6875.37	54425.1	7.25741	377.127
25	3981.1	54817.8	6190.35	55166.3	6.44288	378.527
26	3162.3	55523.6	5576.64	55802.9	5.7354	379.887
27	2511.9	56147.7	5032.5	56372.8	5.12172	381.242
28	1995.3	56727.9	4554.23	56910.4	4.58998	382.692
29	1584.9	57236.5	4137.21	57385.8	4.13431	384.047
30	1258.9	57690.2	3776.56	57813.7	3.7454	385.417
31	1000	58106.5	3466.28	58209.8	3.41387	386.897
32	794.33	58493	3207.66	58580.8	3.13886	388.472
33	630.96	58851.9	2992.01	58927.9	2.91039	389.982
34	501.19	59200.6	2818.21	59267.7	2.72547	391.592
35	398.11	59497.6	2678.71	59557.8	2.57784	392.992
36	316.23	59816.8	2579.45	59872.4	2.46921	394.312
37	251.19	60103.8	2508.43	60156.2	2.38985	395.782
38	199.53	60399.6	2472.74	60450.2	2.34436	397.057
39	158.49	60647.1	2472	60697.5	2.33411	398.467
40	125.89	60939	2499.25	60990.2	2.34852	399.887
41	100	61181	2559.74	61234.6	2.39579	401.322
42	79.433	61472.8	2661.64	61530.4	2.47923	402.937
43	63.096	61757.4	2794.29	61820.5	2.59066	404.632
44	50.119	62096.9	2983.59	62168.6	2.75079	406.032
45	39.811	62418.9	3207.43	62501.3	2.94158	415.332
46	31.623	62760.4	3490.17	62857.4	3.183	417.002
47	25.119	63190.4	3830.15	63306.4	3.46862	418.657
48	19.953	63623.3	4264.17	63766	3.83435	420.772
49	15.849	64070.8	4753.39	64246.9	4.24297	422.797
50	12.589	64559.7	5315.64	64778.2	4.70693	424.902
51	10	65178.1	5989.58	65452.7	5.25048	427.408
52	7.9433	65837.5	6762.55	66183.9	5.86461	429.718
53	6.3096	66604.9	7656.98	67043.5	6.558	432.163
54	5.0119	67455.8	8682.9	68012.4	7.33477	434.698
55	3.9811	68457.5	9852.95	69163	8.19022	437.358
56	3.1623	69602.4	11182.1	70494.9	9.12696	440.058
57	2.5119	70892.2	12692.4	72019.5	10.1506	442.738
58	1.9953	72352.4	14406.3	73772.7	11.2611	445.483
59	1.5849	73975.5	16345	75759.7	12.4594	449.848
60	1.2589	75804.1	18512.6	78031.9	13.7239	452.608
61	1	77882.9	21032.8	80672.9	15.1126	457.693
62	0.79433	80259.7	23862.5	83731.9	16.558	460.848
63	0.63096	82890.9	27109.6	87211.4	18.1104	464.558
64	0.50119	85785.7	30810.1	91150.7	19.7559	468.463
65	0.39811	89054.7	35324.4	95804.8	21.6363	472.658
66	0.31623	92688	40221	101039	23.458	477.433
67	0.25119	96678.4	46500	107280	25.6864	483.274
68	0.19953	101545	53023	114555	27.5718	489.639
69	0.15849	106960	61137	123200	29.7518	496.994
70	0.12589	114109	70723	134248	31.79	505.649
71	0.1	121357	79997.9	145352	33.3926	516.044