File: data/20200503/Z_p28_1.txt
Index	Frequency (Hz)	Z' (Ω)	-Z'' (Ω)	Z (Ω)	-Phase (°)	Time (s)
1	1000000	3466.48	6512.56	7377.66	61.9747	30.3403
2	794330	4865.48	6786.6	8350.5	54.3623	31.8204
3	630960	6407.84	7355.9	9755.5	48.9403	33.2854
4	501190	7925.1	8059.66	11303.3	45.4823	34.8254
5	398110	10004.5	9323.38	13675.4	42.9817	36.2354
6	316230	11818.1	9798.95	15352.1	39.6636	37.6205
7	251190	13468.5	9785	16647.7	35.9989	39.8405
8	199530	15378.5	9955.04	18319.4	32.9164	41.1255
9	158490	17224.8	9959.15	19896.7	30.036	42.4806
10	125890	19018.1	9761.56	21377	27.1704	43.7656
11	100000	20724.1	9440.42	22773	24.4906	45.1756
12	79433	22290	8987.93	24033.9	21.9606	46.5306
13	63096	23750.4	8449.1	25208.5	19.5828	48.5757
14	50119	25061.6	7848.61	26261.9	17.3891	50.0707
15	39811	26227.4	7196.49	27196.8	15.3437	51.4457
16	31623	27222.8	6506.03	27989.5	13.4411	52.7708
17	25119	28037.3	5907.7	28652.9	11.8987	54.0708
18	19953	28794.8	5375.55	29292.3	10.5745	55.5258
19	15849	29442.7	4860.19	29841.1	9.37346	56.8558
20	12589	30010.7	4400.07	30331.6	8.34108	58.1359
21	10000	30485.4	3995.87	30746.1	7.46747	59.4809
22	7943.3	30957.5	3669.97	31174.3	6.76078	60.7759
23	6309.6	31376.1	3395.01	31559.2	6.1756	62.1059
24	5011.9	31764.4	3165.66	31921.8	5.69134	64.586
25	3981.1	32125	2977.65	32262.7	5.29559	65.896
26	3162.3	32479.9	2828.52	32602.8	4.97706	67.186
27	2511.9	32805.7	2712.8	32917.7	4.7272	68.456
28	1995.3	33128.7	2622.23	33232.3	4.52568	69.7611
29	1584.9	33458.7	2558.09	33556.3	4.37205	71.0411
30	1258.9	33789	2513.02	33882.4	4.25348	72.4211
31	1000	34113.9	2487.75	34204.5	4.17089	73.7561
32	794.33	34437.1	2472.67	34525.8	4.10692	75.1212
33	630.96	34794.8	2473.61	34882.7	4.06639	76.4262
34	501.19	35125.1	2479.27	35212.5	4.03746	77.7262
35	398.11	35489.9	2493.72	35577.4	4.01932	79.0162
36	316.23	35833.1	2511.78	35921	4.00968	80.3063
37	251.19	36205.3	2532.7	36293.8	4.00154	82.4963
38	199.53	36558.9	2553.61	36648	3.99557	83.7763
39	158.49	36944.6	2575.01	37034.3	3.98702	85.1264
40	125.89	37315.6	2595.05	37405.7	3.97814	86.4964
41	100	37686.3	2611.93	37776.7	3.96467	87.8814
42	79.433	38074.5	2625.7	38164.9	3.945	89.5014
43	63.096	38452	2630.55	38541.9	3.91358	91.0115
44	50.119	38845.2	2639.15	38934.7	3.88671	92.4465
45	39.811	39240.7	2638.89	39329.3	3.84728	101.527
46	31.623	39650.5	2634.7	39737.9	3.8016	103.132
47	25.119	40042.1	2622.47	40127.9	3.74712	104.737
48	19.953	40440.9	2624.37	40526	3.71294	106.662
49	15.849	40831.8	2598.89	40914.5	3.64188	108.612
50	12.589	41220.4	2578.3	41301	3.57914	110.652
51	10	41601.8	2545.65	41679.6	3.50161	112.937
52	7.9433	41972.7	2509.4	42047.7	3.42144	115.287
53	6.3096	42330.3	2471.47	42402.4	3.34144	118.997
54	5.0119	42677.2	2439.91	42746.9	3.27211	121.597
55	3.9811	43018.9	2410.92	43086.4	3.20769	124.252
56	3.1623	43321.2	2395.25	43387.3	3.16469	126.822
57	2.5119	43588.7	2393.73	43654.3	3.14332	129.382
58	1.9953	43877.6	2420.87	43944.3	3.15799	132.387
59	1.5849	44146	2477.62	44215.5	3.21226	135.182
60	1.2589	44390	2583.62	44465.1	3.33102	138.202
61	1	44609	2744.27	44693.3	3.5203	141.567
62	0.79433	44862.2	2967.99	44960.2	3.78506	144.847
63	0.63096	45079.6	3226.65	45195	4.09406	148.368
64	0.50119	45292.5	3650.51	45439.3	4.608	152.183
65	0.39811	45528.6	4164.89	45718.7	5.22679	156.363
66	0.31623	45792.3	4882.34	46051.9	6.08584	161.148
67	0.25119	46072.3	5611.27	46412.7	6.94402	166.628
68	0.19953	46410.3	6622.94	46880.5	8.1215	172.813
69	0.15849	46744.5	7933.99	47413.1	9.63305	180.103
70	0.12589	47322.7	9646.9	48296	11.5221	188.698
71	0.1	47906.7	11262.7	49212.8	13.2298	198.908