File: data/20200503/Z_p23_2.txt
Index	Frequency (Hz)	Z' (Ω)	-Z'' (Ω)	Z (Ω)	-Phase (°)	Time (s)
1	1000000	3769.36	8411.74	9217.67	65.8625	130.566
2	794330	5848.27	8824.82	10586.8	56.4673	131.881
3	630960	8018.57	9698.01	12583.7	50.4151	133.331
4	501190	10228.3	10573.5	14711.1	45.9508	134.901
5	398110	13186.1	12739.9	18335.2	44.0138	136.431
6	316230	15601.4	13445.5	20595.7	40.7551	137.876
7	251190	17860.8	13544.9	22415.9	37.1753	142.246
8	199530	20390.4	13892	24673	34.2667	143.666
9	158490	22927.2	14009.4	26868.6	31.4265	145.196
10	125890	25409.4	13951.8	28987.8	28.7703	147.667
11	100000	27819.4	13691	31005.8	26.2036	149.157
12	79433	30121.4	13297.4	32926	23.8196	150.567
13	63096	32324.1	12775.5	34757.2	21.5655	151.982
14	50119	34444.8	12131.5	36518.7	19.4023	153.322
15	39811	36390	11336.3	38114.9	17.303	154.712
16	31623	38091.6	10371.4	39478.3	15.231	156.172
17	25119	39502.7	9528.35	40635.6	13.5611	157.557
18	19953	40860.3	8727.28	41781.9	12.0566	158.937
19	15849	42023	7892.73	42757.7	10.6373	160.417
20	12589	43024.1	7081.9	43603.1	9.34724	161.952
21	10000	43874.2	6286.67	44322.3	8.15433	163.442
22	7943.3	44648.5	5611.82	44999.8	7.16387	164.827
23	6309.6	45329.9	5005.09	45605.4	6.30078	166.217
24	5011.9	45860.1	4457.27	46076.2	5.55131	167.687
25	3981.1	46368	3980.73	46538.6	4.90686	169.032
26	3162.3	46809.4	3558.21	46944.5	4.34696	170.342
27	2511.9	47165.2	3194.8	47273.2	3.8751	171.637
28	1995.3	47497.4	2882.37	47584.7	3.47273	172.922
29	1584.9	47797.5	2605.83	47868.5	3.12056	174.222
30	1258.9	48113.7	2378.83	48172.5	2.8305	175.497
31	1000	48385.1	2178.27	48434.1	2.57768	176.777
32	794.33	48612	2012.08	48653.6	2.37015	178.177
33	630.96	48831.3	1872.24	48867.2	2.1957	179.427
34	501.19	49036.6	1753.61	49067.9	2.04809	180.727
35	398.11	49257.4	1656.53	49285.2	1.92614	181.992
36	316.23	49446.3	1581.83	49471.5	1.83232	183.282
37	251.19	49615.8	1520.62	49639.1	1.75544	184.622
38	199.53	49813.1	1480.44	49835.1	1.70232	185.917
39	158.49	49970.7	1456.56	49992	1.6696	187.307
40	125.89	50135.2	1444.19	50156	1.65001	188.832
41	100	50298.9	1449.95	50319.8	1.65119	190.192
42	79.433	50454.7	1473.02	50476.2	1.67227	191.577
43	63.096	50632.5	1523.32	50655.4	1.72327	193.062
44	50.119	50808.1	1578.82	50832.7	1.77985	203.083
45	39.811	51005.4	1665.33	51032.6	1.87004	212.143
46	31.623	51178.8	1765.51	51209.2	1.97574	213.773
47	25.119	51397.2	1897.53	51432.2	2.11435	215.603
48	19.953	51604.6	2082.33	51646.6	2.31073	217.423
49	15.849	51857.5	2269.34	51907.1	2.50572	219.323
50	12.589	52104.5	2507.09	52164.8	2.75475	221.298
51	10	52428.2	2764.43	52501	3.0183	223.543
52	7.9433	52751	3060.89	52839.8	3.32088	226.033
53	6.3096	53118	3406.57	53227.1	3.66948	228.348
54	5.0119	53544.2	3779.36	53677.4	4.03747	230.723
55	3.9811	53977.3	4210.43	54141.2	4.46025	233.153
56	3.1623	54462.5	4700.6	54665	4.93291	235.688
57	2.5119	54967	5266.34	55218.7	5.47275	238.238
58	1.9953	55509.8	5902.67	55822.7	6.06978	240.833
59	1.5849	56131.4	6661.71	56525.3	6.76824	243.568
60	1.2589	56732.5	7537.28	57231	7.5678	246.943
61	1	57414.3	8630.13	58059.2	8.54832	253.258
62	0.79433	58180.1	9920.48	59019.8	9.67663	256.684
63	0.63096	59057.7	11367.7	60141.8	10.8953	260.834
64	0.50119	59841.4	13254.3	61291.7	12.4888	264.809
65	0.39811	60951.2	15538.7	62900.7	14.3022	269.049
66	0.31623	62100	18357.7	64756.6	16.4685	273.959
67	0.25119	63954.9	21823.8	67575.9	18.8415	279.364
68	0.19953	65689.4	25844.9	70590.8	21.4767	285.604
69	0.15849	67994.8	30369.1	74468.6	24.0674	292.914
70	0.12589	69882.9	35563.2	78411.5	26.9714	301.424
71	0.1	72943	42012	84176.5	29.9401	313.445