File: data/20200503/Z_p25_1.txt
Index	Frequency (Hz)	Z' (Ω)	-Z'' (Ω)	Z (Ω)	-Phase (°)	Time (s)
1	1000000	3483.73	8367.26	9063.52	67.3955	24.3052
2	794330	5501.65	8924.73	10484.2	58.3483	25.7003
3	630960	7620.66	9948.59	12531.9	52.5477	27.1703
4	501190	9817.84	11071.2	14797.4	48.4338	28.7603
5	398110	12563.9	13486	18431.6	47.0273	30.3803
6	316230	15052.9	14509.7	20907.4	43.9474	32.2254
7	251190	17462	14867.3	22933.7	40.4113	35.7604
8	199530	20210.9	15608.9	25536.6	37.679	37.2555
9	158490	22890.8	16082.3	27975.6	35.0906	38.8955
10	125890	25869.3	16346.2	30600.9	32.2878	40.4355
11	100000	28689.9	16442.2	33067.4	29.817	42.0306
12	79433	31507	16361.2	35501.9	27.4424	43.5756
13	63096	34272.5	16070.1	37853	25.1215	45.1506
14	50119	36997.1	15623.7	40160.7	22.8942	46.6456
15	39811	39598.8	14968.6	42333.5	20.707	48.4357
16	31623	42020.2	14072	44313.9	18.515	50.4307
17	25119	44075.7	13156.6	45997.5	16.6203	52.3507
18	19953	46086.1	12273.6	47692.5	14.9128	53.8908
19	15849	47868.1	11329.2	49190.5	13.3155	55.4458
20	12589	49432.7	10321.6	50498.8	11.7939	56.8858
21	10000	50784.2	9331.31	51634.3	10.4117	58.4359
22	7943.3	52008.4	8458.78	52691.8	9.23785	60.0159
23	6309.6	53057.1	7632.6	53603.3	8.1862	61.6759
24	5011.9	54024.4	6881.08	54460.9	7.25867	63.2709
25	3981.1	54821.1	6195.03	55170.1	6.44732	64.641
26	3162.3	55546.8	5581.57	55826.5	5.73805	66.136
27	2511.9	56194.6	5032.07	56419.5	5.11702	67.566
28	1995.3	56748.8	4554.07	56931.3	4.58813	69.0711
29	1584.9	57273.7	4138.46	57423	4.13287	70.5961
30	1258.9	57741.8	3776.29	57865.1	3.74179	72.0511
31	1000	58163.1	3472.27	58266.6	3.41644	73.7911
32	794.33	58552.7	3212.15	58640.7	3.14005	75.3562
33	630.96	58898.8	2993.62	58974.8	2.90964	76.7212
34	501.19	59232.6	2819.83	59299.7	2.72556	78.4012
35	398.11	59541.8	2679.89	59602.1	2.57706	80.0313
36	316.23	59833.8	2574.71	59889.1	2.46397	81.4863
37	251.19	60135.1	2508.15	60187.4	2.38834	83.1213
38	199.53	60424.7	2473.52	60475.3	2.34413	84.4413
39	158.49	60691.3	2469.21	60741.5	2.32978	85.7964
40	125.89	60971.7	2495.77	61022.8	2.34399	87.5264
41	100	61204.1	2554.58	61257.4	2.39006	89.1214
42	79.433	61514.2	2658.25	61571.7	2.47441	90.6415
43	63.096	61813.6	2792.4	61876.7	2.58655	92.1515
44	50.119	62118.2	2971.68	62189.3	2.73889	93.8365
45	39.811	62473.7	3207.15	62556	2.93876	103.162
46	31.623	62829.5	3483.05	62926	3.17303	104.912
47	25.119	63222.1	3818.21	63337.3	3.4561	106.627
48	19.953	63642.6	4244.69	63784	3.81574	108.907
49	15.849	64105	4729.95	64279.2	4.21989	110.982
50	12.589	64627.1	5296.79	64843.8	4.68545	113.007
51	10	65203.7	5958.71	65475.4	5.22153	115.392
52	7.9433	65891.4	6741.87	66235.5	5.84205	117.892
53	6.3096	66644.7	7629.29	67080	6.53062	120.542
54	5.0119	67492.6	8654.26	68045.2	7.3069	123.077
55	3.9811	68475.7	9807.43	69174.4	8.15076	125.632
56	3.1623	69576.9	11127.8	70461.2	9.08669	128.622
57	2.5119	70851.6	12641.2	71970.4	10.1162	132.092
58	1.9953	72339.6	14323.7	73744.1	11.2001	135.027
59	1.5849	73950.5	16229	75710.4	12.3778	137.797
60	1.2589	75830.4	18453.7	78043.5	13.6773	140.917
61	1	77898	20935	80662.1	15.0428	146.362
62	0.79433	80272.8	23707.2	83700.4	16.4536	149.803
63	0.63096	82726	26945.4	87003.7	18.0414	153.413
64	0.50119	85494.3	30640.7	90819.2	19.7174	157.583
65	0.39811	88941.2	35073.6	95607	21.5216	162.058
66	0.31623	92529.9	40052.1	100826	23.4057	166.998
67	0.25119	96424.6	46166	106906	25.5841	172.948
68	0.19953	101487	52680.5	114345	27.4333	179.348
69	0.15849	106814	60678.8	122846	29.6	186.693
70	0.12589	113388	70559.8	133550	31.8934	195.343
71	0.1	121423	80131.5	145480	33.4224	205.664