File: data/20200503/Z_p21_1.txt
Index	Frequency (Hz)	Z' (Ω)	-Z'' (Ω)	Z (Ω)	-Phase (°)	Time (s)
1	1000000	3607.85	6790.45	7689.4	62.0178	141.385
2	794330	5146.81	7000.31	8688.73	53.6757	143.27
3	630960	6866.08	7552.88	10207.3	47.7271	144.7
4	501190	8477.04	8121.93	11739.9	43.7745	146.145
5	398110	10802.6	9213.83	14198.2	40.4619	147.505
6	316230	12628.7	9501.45	15803.9	36.9566	148.941
7	251190	14218.1	9348.39	17016.1	33.3248	151.211
8	199530	16028.8	9328.75	18545.9	30.1993	152.551
9	158490	17760.3	9149.4	19978.4	27.2558	154.021
10	125890	19408.5	8790.2	21306.3	24.366	155.341
11	100000	20911.3	8302.7	22499.3	21.6553	156.811
12	79433	22260.9	7725.64	23563.4	19.1393	158.141
13	63096	23466.4	7091.42	24514.5	16.8146	159.461
14	50119	24523.2	6428.7	25351.8	14.6894	160.826
15	39811	25427.7	5739.66	26067.4	12.7199	162.141
16	31623	26155.8	5046.7	26638.2	10.9209	163.446
17	25119	26726	4476.37	27098.3	9.50829	164.726
18	19953	27255.8	3955.3	27541.3	8.25698	165.991
19	15849	27695.5	3472.04	27912.3	7.1456	167.281
20	12589	28064.4	3048.88	28229.5	6.20023	168.686
21	10000	28326	2651.24	28449.8	5.34716	169.991
22	7943.3	28622.2	2338.99	28717.6	4.67181	171.281
23	6309.6	28855.9	2072.28	28930.2	4.10764	172.596
24	5011.9	29061	1842.27	29119.3	3.62731	173.896
25	3981.1	29244.1	1645.37	29290.3	3.22026	175.166
26	3162.3	29414.2	1477.13	29451.3	2.87488	176.586
27	2511.9	29566.5	1334.39	29596.6	2.58411	177.931
28	1995.3	29700.1	1216.64	29725	2.34576	179.191
29	1584.9	29838	1112.91	29858.7	2.13606	180.441
30	1258.9	29955.9	1025.99	29973.5	1.96161	181.726
31	1000	30070.5	952.422	30085.6	1.81412	183.001
32	794.33	30186.4	888.412	30199.4	1.68578	184.476
33	630.96	30294	835.306	30305.5	1.57943	185.721
34	501.19	30397.7	788.129	30407.9	1.48519	187.031
35	398.11	30487.2	748.092	30496.4	1.40564	188.286
36	316.23	30581.9	713.439	30590.3	1.3364	189.616
37	251.19	30678.7	684.408	30686.4	1.27799	190.966
38	199.53	30770.4	660.033	30777.5	1.22882	192.336
39	158.49	30837.9	642.136	30844.6	1.1929	193.636
40	125.89	30924.4	627.216	30930.7	1.16193	194.966
41	100	30989.7	615.967	30995.8	1.13869	196.706
42	79.433	31053.9	612.017	31059.9	1.12905	198.346
43	63.096	31141.3	614.296	31147.4	1.13007	199.866
44	50.119	31195.4	622.475	31201.6	1.14313	201.371
45	39.811	31291.6	634.477	31298.1	1.16158	210.612
46	31.623	31357	658.5	31363.9	1.20304	212.317
47	25.119	31443.5	693.985	31451.2	1.26436	214.052
48	19.953	31489.7	748.256	31498.6	1.3612	215.962
49	15.849	31578.3	805.383	31588.6	1.46097	217.952
50	12.589	31674.4	880.428	31686.6	1.5922	219.967
51	10	31767.5	967.932	31782.2	1.74522	222.272
52	7.9433	31850.3	1076.5	31868.5	1.93579	224.607
53	6.3096	31972.7	1208.26	31995.5	2.16419	227.007
54	5.0119	32108	1361.83	32136.9	2.42869	229.512
55	3.9811	32255.8	1543.94	32292.8	2.7404	231.952
56	3.1623	32417.6	1757.67	32465.2	3.10351	234.572
57	2.5119	32606.3	2001.07	32667.7	3.51187	237.062
58	1.9953	32827.5	2291.64	32907.4	3.99325	239.752
59	1.5849	33084.8	2616.61	33188.1	4.52199	242.607
60	1.2589	33384	2983.4	33517.1	5.10673	245.542
61	1	33725.3	3410.87	33897.4	5.77507	248.932
62	0.79433	34121.6	3847.87	34337.9	6.43403	252.227
63	0.63096	34538.6	4385.84	34816	7.23689	255.838
64	0.50119	35028.1	4956.44	35377.1	8.05381	259.658
65	0.39811	35556.1	5681.75	36007.2	9.07894	263.948
66	0.31623	36154	6433.5	36722	10.09	268.778
67	0.25119	36732.7	7435.71	37477.7	11.4436	274.188
68	0.19953	37345.2	8485	38297	12.8005	280.518
69	0.15849	38155.5	9825.62	39400.3	14.4408	287.783
70	0.12589	39048.8	11198.2	40622.7	16.0015	296.378
71	0.1	39605	13133.1	41725.7	18.3456	306.648