File: data/20200503/Z_p20_1.txt
Index	Frequency (Hz)	Z' (Ω)	-Z'' (Ω)	Z (Ω)	-Phase (°)	Time (s)
1	1000000	2954.79	8354.38	8861.51	70.5222	23.5772
2	794330	4942.6	9176.46	10422.9	61.6923	24.9523
3	630960	7106.07	10552.1	12721.7	56.0425	26.3673
4	501190	9304.95	11912.5	15115.9	52.0063	27.8573
5	398110	12177.8	14950.2	19282.3	50.8353	29.2173
6	316230	14969.4	16312.4	22140	47.4583	30.6074
7	251190	17778.9	16996.4	24596.1	43.7109	33.7374
8	199530	21023.3	17926.2	27628.4	40.4536	35.0324
9	158490	24468.3	18443.9	30641	37.0085	36.4175
10	125890	28002.1	18713.7	33679.7	33.7547	37.7125
11	100000	31423.8	18531.2	36480.9	30.5287	39.0425
12	79433	34728.4	18039.7	39134.3	27.4497	40.3375
13	63096	37856.6	17284.2	41615.7	24.5401	41.7126
14	50119	40709.4	16300.8	43851.7	21.822	43.0276
15	39811	43333	15100.3	45888.6	19.212	44.4376
16	31623	45579.9	13728.6	47602.5	16.7623	45.7126
17	25119	47314.9	12541.7	48948.9	14.8459	47.1027
18	19953	49007.3	11476.7	50333.2	13.1802	48.4677
19	15849	50488.1	10410.8	51550.3	11.6513	49.8427
20	12589	51746.6	9442.36	52601	10.3412	51.1227
21	10000	52788.1	8535.48	53473.7	9.18485	52.4378
22	7943.3	53792.8	7810.92	54357	8.26181	53.8228
23	6309.6	54722.1	7187.06	55192	7.48226	55.1128
24	5011.9	55547.3	6659.12	55945	6.83611	56.3828
25	3981.1	56280.3	6212.43	56622.1	6.29902	57.8229
26	3162.3	56977.4	5845.08	57276.4	5.85726	59.0879
27	2511.9	57673.2	5552.91	57939.9	5.49962	60.4779
28	1995.3	58303.2	5316.2	58545.1	5.20993	61.7929
29	1584.9	58969.1	5135.4	59192.3	4.97713	62.973
30	1258.9	59651.6	5009.45	59861.6	4.80034	64.273
31	1000	60253.7	4909.05	60453.3	4.65777	65.563
32	794.33	60917.3	4842.33	61109.4	4.54491	67.028
33	630.96	61578.7	4803.52	61765.7	4.46039	68.2981
34	501.19	62243.2	4787.65	62427.1	4.39844	69.5981
35	398.11	62909.7	4775.69	63090.7	4.34119	70.7831
36	316.23	63582.4	4782.57	63762	4.3016	72.0731
37	251.19	64245.9	4787.97	64424	4.26213	73.5332
38	199.53	64964.3	4802.76	65141.6	4.22814	74.8132
39	158.49	65643.3	4814.07	65819.6	4.19438	76.1132
40	125.89	66344.4	4819.84	66519.3	4.15517	77.5332
41	100	67016.7	4819.84	67189.8	4.11363	78.8032
42	79.433	67728.9	4810.23	67899.5	4.06243	80.2333
43	63.096	68479.5	4790.25	68646.9	4.00141	81.6683
44	50.119	69179.2	4770.5	69343.5	3.9448	82.9933
45	39.811	69868.5	4750.6	70029.8	3.88975	92.1935
46	31.623	70607	4707.27	70763.7	3.81419	94.0135
47	25.119	71284.9	4663.24	71437.3	3.74279	95.7236
48	19.953	71984	4645.21	72133.8	3.69224	97.6236
49	15.849	72647.5	4592.74	72792.5	3.6174	99.6086
50	12.589	73307.6	4542.58	73448.2	3.54586	101.694
51	10	73954.7	4486.85	74090.7	3.4719	104.809
52	7.9433	74596.5	4416.77	74727.1	3.38846	107.114
53	6.3096	75235.1	4382.01	75362.6	3.33338	109.509
54	5.0119	75855.5	4323.93	75978.6	3.26246	112.004
55	3.9811	76441.5	4282.24	76561.3	3.20635	114.524
56	3.1623	77013.8	4265.22	77131.8	3.16994	117.059
57	2.5119	77508	4259.87	77625	3.14583	119.834
58	1.9953	78045.2	4309.09	78164	3.16025	122.409
59	1.5849	78521.1	4385.51	78643.5	3.19673	125.104
60	1.2589	79003.1	4537.07	79133.3	3.28682	127.969
61	1	79511.5	4790.52	79655.7	3.44787	131.174
62	0.79433	79973.3	5085.25	80134.8	3.63836	134.404
63	0.63096	80448.5	5519.79	80637.6	3.92507	137.884
64	0.50119	80928.8	6064.79	81155.7	4.28572	141.639
65	0.39811	81462.9	6807.72	81746.9	4.77701	145.779
66	0.31623	82022.5	7815.94	82394	5.44329	150.56
67	0.25119	82843.3	8833.34	83312.9	6.08628	155.905
68	0.19953	83654.6	10130.8	84265.8	6.90504	162.14
69	0.15849	84461.4	11691.1	85266.7	7.88077	169.305
70	0.12589	85555.4	13817.7	86664	9.17437	177.89
71	0.1	87007.2	15703.8	88413.1	10.2311	188.01