File: data/20200503/Z_p23_3.txt
Index	Frequency (Hz)	Z' (Ω)	-Z'' (Ω)	Z (Ω)	-Phase (°)	Time (s)
1	1000000	3833.38	8449.39	9278.31	65.5968	88.5354
2	794330	5853.56	8834.26	10597.6	56.4717	89.9105
3	630960	8126.63	9605.73	12582.2	49.7681	91.3505
4	501190	10270.2	10540.6	14716.6	45.7444	92.8905
5	398110	13125.3	12687.7	18255.2	44.0289	97.1306
6	316230	15522.7	13328.9	20460.1	40.6517	98.3906
7	251190	17849.6	13499.9	22379.8	37.1007	102.401
8	199530	20388.4	13894.7	24672.8	34.2744	103.786
9	158490	22881.2	14211.6	26935.4	31.8445	105.301
10	125890	25367.3	13913	28932.2	28.743	106.591
11	100000	27727.9	13667.3	30913.3	26.239	107.976
12	79433	30072.7	13267.8	32869.5	23.8066	109.376
13	63096	32225.5	12761.3	34660.2	21.6036	110.871
14	50119	34349.6	12083.9	36413.1	19.3814	112.181
15	39811	36293.7	11284.8	38007.6	17.272	113.501
16	31623	37972.3	10322.5	39350.4	15.208	114.891
17	25119	39371.2	9506.59	40502.7	13.5748	116.241
18	19953	40714.6	8676.08	41628.7	12.0295	117.631
19	15849	41895	7839.66	42622.2	10.599	118.891
20	12589	42949.8	6988.99	43514.7	9.24243	120.246
21	10000	43801.2	6272.39	44248	8.14944	121.596
22	7943.3	44586.9	5600.74	44937.3	7.15966	122.891
23	6309.6	45238.7	4994.36	45513.6	6.29994	124.171
24	5011.9	45805.5	4447.61	46020.9	5.54591	125.611
25	3981.1	46284.7	3968.16	46454.5	4.9002	126.971
26	3162.3	46702.4	3553.27	46837.3	4.35087	128.251
27	2511.9	47092.9	3187.72	47200.7	3.87244	129.601
28	1995.3	47424.8	2871.98	47511.7	3.46553	131.091
29	1584.9	47726.9	2603.25	47797.8	3.12209	132.476
30	1258.9	48033.9	2371.98	48092.4	2.82704	133.866
31	1000	48274.6	2174.03	48323.5	2.57855	135.196
32	794.33	48525.4	2007.12	48566.9	2.36853	136.516
33	630.96	48721.7	1864.09	48757.3	2.19106	137.806
34	501.19	48953	1747.62	48984.2	2.04459	139.111
35	398.11	49169.6	1655.39	49197.5	1.92825	140.391
36	316.23	49352.3	1582.45	49377.7	1.83652	141.821
37	251.19	49558.1	1522.67	49581.4	1.75985	143.221
38	199.53	49703.3	1478.48	49725.3	1.70383	144.481
39	158.49	49876.9	1454.8	49898.1	1.67072	145.861
40	125.89	50071.3	1444.26	50092.2	1.65218	147.332
41	100	50230.3	1456.06	50251.4	1.66041	148.822
42	79.433	50373.7	1479.2	50395.4	1.68198	150.182
43	63.096	50564.7	1516.28	50587.4	1.71761	151.612
44	50.119	50710.7	1599.98	50736	1.80715	152.982
45	39.811	50943.9	1672.46	50971.3	1.88032	162.112
46	31.623	51116.9	1778.82	51147.8	1.99304	163.757
47	25.119	51323.7	1910	51359.3	2.13126	165.472
48	19.953	51539	2098.3	51581.7	2.33138	167.357
49	15.849	51780.6	2292.32	51831.3	2.53482	169.357
50	12.589	52062.9	2525.94	52124.1	2.77765	171.457
51	10	52364.2	2791.94	52438.6	3.05199	173.842
52	7.9433	52699.3	3091.76	52789.9	3.35758	176.152
53	6.3096	53063	3429.72	53173.7	3.69816	178.702
54	5.0119	53455.2	3815.62	53591.2	4.08284	181.112
55	3.9811	53944.3	4253.9	54111.7	4.50886	183.617
56	3.1623	54425.5	4743.24	54631.8	4.9808	186.212
57	2.5119	54932.5	5303.64	55188	5.51472	188.802
58	1.9953	55480.1	5951.25	55798.4	6.1226	191.532
59	1.5849	56113.6	6700.35	56512.2	6.80927	194.442
60	1.2589	56697.8	7619.11	57207.4	7.65362	197.247
61	1	57426.1	8698.58	58081.2	8.61336	202.323
62	0.79433	58263.5	10002.4	59115.9	9.74126	205.573
63	0.63096	58991.5	11444.2	60091.3	10.9789	209.158
64	0.50119	59855.2	13444.5	61346.6	12.6595	213.073
65	0.39811	60867.3	15666	62851	14.4335	217.363
66	0.31623	62093.7	18677.6	64842	16.7412	222.173
67	0.25119	63829.8	21722.6	67424.8	18.7945	227.638
68	0.19953	65755.3	25668	70587.6	21.3235	233.818
69	0.15849	67589.8	30279.1	74062.2	24.1316	241.003
70	0.12589	69933.9	36445.3	78860.7	27.5258	249.493
71	0.1	73722.7	42624.6	85158	30.0354	259.839