File: data/20200503/Z_p27_2.txt
Index	Frequency (Hz)	Z' (Ω)	-Z'' (Ω)	Z (Ω)	-Phase (°)	Time (s)
1	1000000	3311.11	5993.26	6847.09	61.0805	426.076
2	794330	4586.62	6272.75	7770.74	53.8258	428.127
3	630960	5981.17	6813.1	9066.02	48.7203	429.997
4	501190	7395.69	7360.15	10434	44.862	432.067
5	398110	9227.69	8505.21	12549.5	42.6669	433.707
6	316230	10864.2	8938.28	14068.6	39.445	435.112
7	251190	12389.1	8912.4	15261.7	35.7303	436.597
8	199530	14095.7	9067	16760	32.751	439.127
9	158490	15785.4	9050.14	18195.7	29.8267	440.822
10	125890	17421.7	8884.8	19556.5	27.0209	442.357
11	100000	18974.7	8578.38	20823.8	24.3275	444.272
12	79433	20405.6	8161.77	21977.4	21.8002	445.727
13	63096	21717.6	7671.63	23032.8	19.4555	447.437
14	50119	22906.9	7125.13	23989.4	17.2782	448.887
15	39811	23964.7	6543.33	24841.9	15.2718	450.467
16	31623	24868.1	5930.35	25565.5	13.4129	452.027
17	25119	25607.4	5394.88	26169.5	11.8969	453.682
18	19953	26280.6	4912.83	26735.8	10.5885	455.422
19	15849	26898.8	4469.31	27267.5	9.43368	457.392
20	12589	27420.9	4058.56	27719.6	8.4192	458.967
21	10000	27867.4	3686.69	28110.2	7.53614	460.682
22	7943.3	28294.9	3393.98	28497.8	6.83995	462.512
23	6309.6	28684.7	3144.57	28856.6	6.25607	464.282
24	5011.9	29059.8	2940.46	29208.2	5.7779	465.962
25	3981.1	29406.3	2770.11	29536.5	5.38146	467.357
26	3162.3	29729.6	2632.8	29845.9	5.06082	468.737
27	2511.9	30046	2524.28	30151.8	4.80235	471.472
28	1995.3	30353.7	2442.3	30451.8	4.60017	472.967
29	1584.9	30655.1	2379.47	30747.3	4.43844	474.412
30	1258.9	30964.5	2335.85	31052.5	4.31401	476.302
31	1000	31272.5	2307.32	31357.5	4.2197	477.952
32	794.33	31580.9	2289.58	31663.8	4.14663	480.242
33	630.96	31902	2284.16	31983.7	4.09534	482.418
34	501.19	32225.2	2285.86	32306.2	4.05741	484.848
35	398.11	32546.8	2293.71	32627.5	4.03121	486.448
36	316.23	32859.5	2306.74	32940.3	4.01559	491.378
37	251.19	33193.5	2318.64	33274.4	3.99574	493.448
38	199.53	33540	2338.05	33621.4	3.9876	495.558
39	158.49	33868.6	2354.68	33950.3	3.97703	497.548
40	125.89	34217.2	2372.45	34299.3	3.96626	499.653
41	100	34545.9	2387.48	34628.3	3.95345	501.463
42	79.433	34913.3	2400.1	34995.7	3.93259	503.838
43	63.096	35272.2	2413.02	35354.7	3.91358	505.528
44	50.119	35624	2420.88	35706.1	3.88765	507.113
45	39.811	35976.6	2424.65	36058.2	3.85562	516.688
46	31.623	36363.2	2424.18	36443.9	3.81402	518.823
47	25.119	36714.2	2419.93	36793.9	3.77106	521.988
48	19.953	37080.2	2426.79	37159.5	3.7445	523.973
49	15.849	37454	2412.13	37531.6	3.6849	526.243
50	12.589	37811.5	2398.94	37887.5	3.63026	529.173
51	10	38154.8	2377.29	38228.8	3.56528	532.738
52	7.9433	38526	2352.25	38597.8	3.49392	535.234
53	6.3096	38835	2323.69	38904.5	3.42421	538.449
54	5.0119	39162.9	2302.31	39230.5	3.36443	541.079
55	3.9811	39478.1	2283.63	39544.1	3.31061	545.044
56	3.1623	39777.1	2275.53	39842.1	3.27416	547.499
57	2.5119	40074	2283.19	40138.9	3.26087	550.179
58	1.9953	40324.6	2304.51	40390.4	3.27084	553.409
59	1.5849	40614.2	2362.8	40682.8	3.32952	556.324
60	1.2589	40865.2	2442.81	40938.1	3.42091	559.449
61	1	41084.1	2584.37	41165.4	3.59941	564.904
62	0.79433	41353.7	2751.57	41445.1	3.80671	568.374
63	0.63096	41593.5	2992.5	41701.1	4.11513	572.224
64	0.50119	41839.4	3283.35	41968	4.48709	577.179
65	0.39811	42070.2	3668.4	42229.8	4.98342	581.564
66	0.31623	42324.7	4198.21	42532.4	5.66467	586.494
67	0.25119	42668	4936.25	42952.6	6.59919	592.2
68	0.19953	42910.6	5644.41	43280.3	7.4936	599.265
69	0.15849	43349.2	6612.52	43850.7	8.67307	607.29
70	0.12589	43615.9	7874	44320.9	10.2334	616.26
71	0.1	44128.5	9604.2	45161.5	12.2785	626.94