File: data/20200503/Z_p26_3.txt
Index	Frequency (Hz)	Z' (Ω)	-Z'' (Ω)	Z (Ω)	-Phase (°)	Time (s)
1	1000000	3646.59	9043.44	9750.97	68.0392	578.777
2	794330	5937.86	9579.51	11270.5	58.2073	581.178
3	630960	8405.52	10637.2	13557.4	51.6843	583.564
4	501190	10771.3	11904.7	16054.4	47.8613	586.12
5	398110	14029.1	14489.6	20168.4	45.9251	588.711
6	316230	16824.9	15419.8	22822.1	42.5048	591.067
7	251190	19463.4	15647.8	24973.6	38.7978	598.566
8	199530	22460.6	16113	27642.5	35.6552	600.852
9	158490	25378.1	16317.3	30171.2	32.7397	603.344
10	125890	28332.3	16241.7	32657.5	29.8238	605.735
11	100000	31086.2	15942.2	34935.7	27.1505	608.126
12	79433	33996.3	15485.1	37356.9	24.4889	610.342
13	63096	36510.6	14853.1	39416.2	22.1373	613.328
14	50119	38951.1	14044.1	41405.6	19.8272	615.624
15	39811	41222	13052.6	43239.1	17.57	619.746
16	31623	43197.9	11865.4	44797.8	15.3589	622.167
17	25119	44760.6	10819.9	46049.7	13.5894	624.483
18	19953	46242.9	9833.87	47276.9	12.0055	626.609
19	15849	47574.1	8832.62	48387.1	10.5178	628.955
20	12589	48685.9	7910.27	49324.3	9.22853	631.196
21	10000	49567.2	6940.17	50050.7	7.97047	633.527
22	7943.3	50410.9	6153.93	50785.2	6.95996	635.848
23	6309.6	51091.5	5455.7	51382	6.09511	638.069
24	5011.9	51694	4837.45	51919.9	5.34608	640.31
25	3981.1	52199.2	4295.42	52375.7	4.70422	642.641
26	3162.3	52654.1	3827.69	52793.1	4.1578	644.822
27	2511.9	53058.3	3422.73	53168.6	3.69097	647.103
28	1995.3	53372.8	3080.94	53461.6	3.30372	649.304
29	1584.9	53687.1	2785.08	53759.3	2.96962	651.47
30	1258.9	54013	2538.59	54072.7	2.6909	655.407
31	1000	54275.3	2329.4	54325.2	2.45753	657.619
32	794.33	54550.2	2155.36	54592.7	2.26267	659.84
33	630.96	54752.8	2007.83	54789.6	2.10014	662.031
34	501.19	55006.6	1885.62	55038.9	1.96333	664.392
35	398.11	55225.4	1791.19	55254.5	1.85769	666.718
36	316.23	55440.8	1718.77	55467.5	1.77571	669.094
37	251.19	55625.3	1668.98	55650.3	1.71858	671.51
38	199.53	55809.9	1631.64	55833.8	1.6746	674.001
39	158.49	55958.8	1614.66	55982.1	1.65278	676.202
40	125.89	56161.8	1615.77	56185	1.64794	678.478
41	100	56348.2	1635.57	56371.9	1.66261	680.814
42	79.433	56534.4	1676.68	56559.2	1.69876	683.5
43	63.096	56732.5	1745.08	56759.4	1.76185	685.921
44	50.119	56926.3	1838.68	56956	1.84997	688.377
45	39.811	57112.8	1956.17	57146.3	1.96167	698.523
46	31.623	57305	2102.5	57343.6	2.10122	701.079
47	25.119	57561.8	2291.76	57607.4	2.27997	703.62
48	19.953	57802.1	2535.24	57857.7	2.51142	706.601
49	15.849	58129	2815.91	58197.1	2.77338	709.422
50	12.589	58409.2	3132.06	58493.1	3.06942	712.569
51	10	58763.5	3508.11	58868.1	3.41643	715.865
52	7.9433	59171.7	3946.41	59303.1	3.81565	719.351
53	6.3096	59605.8	4450.89	59771.7	4.27047	722.647
54	5.0119	60097.5	5032.36	60307.8	4.78659	726.288
55	3.9811	60685.2	5679.98	60950.4	5.34716	729.799
56	3.1623	61323.8	6424.56	61659.4	5.98075	733.41
57	2.5119	62037.8	7275.07	62462.9	6.68843	737.131
58	1.9953	62818	8225.76	63354.2	7.4602	741.102
59	1.5849	63771.2	9321.2	64448.8	8.31583	745.278
60	1.2589	64641.2	10593.2	65503.5	9.30676	749.014
61	1	65759.6	12059.2	66856.2	10.3916	753.49
62	0.79433	66954.7	13734.8	68348.9	11.5926	757.791
63	0.63096	68292.2	15729.1	70080.2	12.9702	762.527
64	0.50119	69671.4	18207.1	72011.1	14.6455	767.514
65	0.39811	71098.4	21283.4	74215.6	16.6652	772.78
66	0.31623	73030.3	24637.9	77074.4	18.6426	778.831
67	0.25119	75193.5	28933.2	80567.9	21.0459	785.302
68	0.19953	77249.3	33611.5	84244.8	23.5141	792.723
69	0.15849	80593.6	39757.4	89866.4	26.2575	800.949
70	0.12589	83811.4	47194.8	96185.8	29.3842	810.855
71	0.1	87787.6	55175.9	103687	32.15	822.267