File: data/20200503/Z_p32_3.txt
Index	Frequency (Hz)	Z' (Ω)	-Z'' (Ω)	Z (Ω)	-Phase (°)	Time (s)
1	1000000	3254.45	5801.81	6652.25	60.7103	461.65
2	794330	4426.06	6089.14	7527.79	53.9874	464.061
3	630960	5817.15	6651.27	8836.21	48.8273	466.482
4	501190	7170.77	7227.3	10181.1	45.225	468.978
5	398110	8783.47	8310.07	12091.6	43.4136	471.489
6	316230	10354	8806.77	13592.8	40.3833	473.92
7	251190	11800.1	8909.2	14785.6	37.0533	478.252
8	199530	13471	9212.47	16319.8	34.3673	480.453
9	158490	15153.1	9352.21	17806.7	31.6822	482.694
10	125890	16807.4	9398.06	19256.5	29.2122	485.11
11	100000	18443.4	9301.36	20656.1	26.7627	487.551
12	79433	20018	9089.78	21985.1	24.4219	489.777
13	63096	21527.3	8776.4	23247.5	22.1801	492.228
14	50119	22972.8	8383.41	24454.7	20.0484	494.63
15	39811	24303.6	7908.07	25557.9	18.0242	496.941
16	31623	25531.5	7366.08	26572.8	16.0934	499.147
17	25119	26607.3	6818	27466.9	14.3726	503.339
18	19953	27551.6	6250.99	28251.8	12.783	505.55
19	15849	28383	5703.4	28950.4	11.3619	509.802
20	12589	29110.1	5196.01	29570.2	10.1204	511.913
21	10000	29716.2	4705.05	30086.3	8.99712	514.269
22	7943.3	30299.3	4304.36	30603.5	8.08542	516.57
23	6309.6	30805.3	3952.98	31057.9	7.31231	519.076
24	5011.9	31258.2	3655.47	31471.3	6.67011	521.457
25	3981.1	31677.1	3406.87	31859.8	6.13855	523.798
26	3162.3	32082.7	3204.18	32242.4	5.70335	526.224
27	2511.9	32445	3043.28	32587.4	5.35856	528.49
28	1995.3	32805	2917.92	32934.5	5.08294	530.791
29	1584.9	33165.3	2826.4	33285.5	4.87106	532.997
30	1258.9	33519.5	2759.38	33632.9	4.70606	535.298
31	1000	33846.9	2717.86	33955.9	4.59091	537.619
32	794.33	34204.2	2698.57	34310.5	4.51106	539.965
33	630.96	34555.6	2698.8	34660.8	4.46575	542.331
34	501.19	34922.6	2715.72	35028	4.4466	544.607
35	398.11	35284.8	2744.45	35391.4	4.44751	546.909
36	316.23	35676.2	2791.6	35785.3	4.47418	549.295
37	251.19	36055.4	2847.92	36167.7	4.51626	551.696
38	199.53	36443.5	2915.47	36560	4.57389	553.887
39	158.49	36840	2992.81	36961.4	4.6444	556.678
40	125.89	37244.9	3082.53	37372.3	4.73123	559.149
41	100	37666	3181.9	37800.1	4.8287	561.505
42	79.433	38100.6	3297.97	38243.1	4.94716	563.866
43	63.096	38558.8	3430.66	38711.1	5.08434	566.342
44	50.119	39045.2	3579.81	39209	5.23845	568.873
45	39.811	39513.7	3739.56	39690.2	5.40635	579.104
46	31.623	40031.5	3925.14	40223.5	5.60001	581.755
47	25.119	40564.2	4137.46	40774.7	5.8239	584.346
48	19.953	41086.2	4390.86	41320.1	6.10002	587.177
49	15.849	41677.2	4670.35	41938.1	6.39389	590.123
50	12.589	42275.6	4979.76	42567.9	6.71807	593.209
51	10	42917.9	5344.91	43249.4	7.09895	596.61
52	7.9433	43594.5	5753.18	43972.5	7.5179	600.016
53	6.3096	44284.6	6228.81	44720.5	8.00636	603.403
54	5.0119	45042.4	6774.66	45549	8.55354	606.944
55	3.9811	45874.2	7414.02	46469.4	9.18057	610.325
56	3.1623	46737.8	8148.39	47442.8	9.88971	613.811
57	2.5119	47678.1	8996.21	48519.4	10.6853	617.522
58	1.9953	48686.1	9997.98	49702.1	11.6047	621.113
59	1.5849	49815.4	11130.2	51043.6	12.5947	624.919
60	1.2589	51049	12452.8	52545.9	13.7089	628.765
61	1	52389.8	14022.9	54234.1	14.9847	633.051
62	0.79433	53973.2	15862.2	56255.8	16.3776	637.227
63	0.63096	55603.3	17931.9	58423.3	17.8743	641.738
64	0.50119	57423.1	20331.7	60916.3	19.4975	646.469
65	0.39811	59427	23343.9	63847.6	21.4457	651.81
66	0.31623	61588.5	26581.9	67080.1	23.3453	658.782
67	0.25119	64244.5	30554.5	71140.2	25.4357	665.273
68	0.19953	67226.9	35726.2	76130.3	27.9874	672.464
69	0.15849	70453	40685.4	81356.8	30.0057	680.985
70	0.12589	74278.4	47053.6	87927.9	32.3533	690.576
71	0.1	78379.6	55039.2	95774	35.077	701.907