File: data/20200503/Z_p30_1.txt
Index	Frequency (Hz)	Z' (Ω)	-Z'' (Ω)	Z (Ω)	-Phase (°)	Time (s)
1	1000000	3601.3	6121.96	7102.65	59.5334	61.2659
2	794330	4950.03	6288.18	8002.75	51.7903	62.7909
3	630960	6362.41	6717.38	9252.21	46.5546	64.151
4	501190	7822.42	7231.23	10652.7	42.751	65.646
5	398110	9684.28	8127.48	12642.8	40.0048	67.221
6	316230	11273.6	8395.06	14056	36.6737	68.7061
7	251190	12690.9	8227.44	15124.5	32.9551	70.2111
8	199530	14259.6	8250.62	16474.5	30.0538	71.7661
9	158490	15767.1	8108.91	17730.1	27.2164	73.1461
10	125890	17195.5	7853.57	18904.1	24.5472	75.6712
11	100000	18579.4	7551.33	20055.4	22.1185	77.1812
12	79433	19788.8	7121.98	21031.4	19.7937	78.7312
13	63096	20893.6	6645.61	21925	17.6442	80.2713
14	50119	21891.9	6149.17	22739.2	15.6894	81.6513
15	39811	22780.3	5636.93	23467.4	13.8985	83.0263
16	31623	23530.1	5106.61	24077.9	12.2447	84.3513
17	25119	24153.8	4664.8	24600.1	10.9309	85.8064
18	19953	24739.6	4249.72	25101.9	9.74705	87.1264
19	15849	25262.1	3869.43	25556.8	8.70839	88.6564
20	12589	25711.1	3538.69	25953.5	7.83653	90.1714
21	10000	26092.1	3225.56	26290.7	7.04728	91.6965
22	7943.3	26474.3	2986.14	26642.2	6.4354	93.0815
23	6309.6	26835.5	2783.11	26979.4	5.92098	94.4265
24	5011.9	27161.2	2615.37	27286.8	5.50009	95.8516
25	3981.1	27469.8	2477.13	27581.2	5.15279	97.2216
26	3162.3	27751.6	2366.27	27852.3	4.8736	98.5566
27	2511.9	28046.7	2283.22	28139.5	4.65406	99.9416
28	1995.3	28334.6	2220.43	28421.5	4.48081	101.302
29	1584.9	28615.5	2173.73	28697.9	4.34404	102.717
30	1258.9	28900.9	2142.89	28980.2	4.24049	104.037
31	1000	29185.9	2123.61	29263	4.1616	105.462
32	794.33	29479.3	2115.53	29555.1	4.10469	107.037
33	630.96	29769	2116.18	29844.1	4.06613	108.572
34	501.19	30083.9	2125.06	30158.8	4.04053	110.112
35	398.11	30369.3	2134.47	30444.2	4.02036	111.542
36	316.23	30672.8	2151.77	30748.2	4.01286	112.967
37	251.19	30993.7	2166.99	31069.4	3.99945	114.542
38	199.53	31307.5	2184.91	31383.6	3.99214	116.042
39	158.49	31616.4	2203.73	31693.1	3.98719	117.577
40	125.89	31945.4	2220.07	32022.4	3.97542	119.122
41	100	32277.1	2235.26	32354.4	3.96153	120.682
42	79.433	32616.3	2248.73	32693.7	3.94401	122.082
43	63.096	32929.6	2254.24	33006.7	3.91615	123.567
44	50.119	33271.3	2267.11	33348.4	3.89811	125.132
45	39.811	33603.3	2265.38	33679.5	3.85678	134.322
46	31.623	33948.8	2253.28	34023.5	3.79732	135.997
47	25.119	34299.8	2244.1	34373.2	3.7433	137.637
48	19.953	34629.2	2237.64	34701.5	3.69714	139.562
49	15.849	34979	2209.38	35048.7	3.61418	141.647
50	12.589	35333.8	2177.32	35400.8	3.52619	144.047
51	10	35629	2128.39	35692.5	3.41865	146.392
52	7.9433	35959.5	2075.85	36019.4	3.30387	148.663
53	6.3096	36256.5	2024.34	36312.9	3.19572	151.278
54	5.0119	36556	1963.16	36608.7	3.07398	153.743
55	3.9811	36822	1911.44	36871.6	2.97157	156.228
56	3.1623	37085.7	1860.77	37132.3	2.8724	158.773
57	2.5119	37294.2	1822.56	37338.7	2.7978	161.418
58	1.9953	37535.2	1797.97	37578.3	2.74242	164.068
59	1.5849	37760.6	1788.42	37803	2.71161	167.053
60	1.2589	37930.7	1808.39	37973.8	2.72957	171.633
61	1	38130.4	1862.9	38175.9	2.79701	175.113
62	0.79433	38305.8	1933.96	38354.6	2.89027	178.378
63	0.63096	38488.5	2056.91	38543.4	3.0591	182.198
64	0.50119	38638.2	2227.81	38702.4	3.29991	186.228
65	0.39811	38785.5	2461.22	38863.5	3.63096	190.468
66	0.31623	38968.8	2804.47	39069.5	4.11632	195.328
67	0.25119	39171.6	3166.96	39299.4	4.62222	200.999
68	0.19953	39355.3	3683.28	39527.3	5.34676	207.369
69	0.15849	39570.1	4322.49	39805.5	6.23405	214.879
70	0.12589	39706.7	5134.8	40037.4	7.36848	223.654
71	0.1	40049	6265.7	40536.2	8.89189	234.129