File: data/20200503/Z_p31_2.txt
Index	Frequency (Hz)	Z' (Ω)	-Z'' (Ω)	Z (Ω)	-Phase (°)	Time (s)
1	1000000	3270.58	5742.61	6608.65	60.3373	363.839
2	794330	4493.04	6003.34	7498.5	53.1879	365.349
3	630960	5826.1	6463.35	8701.63	47.9684	366.754
4	501190	7096.11	7042.74	9997.75	44.7837	368.329
5	398110	8877.75	8043.04	11979.4	42.1758	369.934
6	316230	10417.9	8457.91	13419	39.0719	371.379
7	251190	11843.9	8440.18	14543.5	35.4744	373.765
8	199530	13478	8607.72	15992.2	32.5644	375.12
9	158490	15083.7	8614.71	17370.4	29.7318	376.515
10	125890	16640.6	8465.88	18670.3	26.9647	377.915
11	100000	18124.2	8182.14	19885.5	24.2967	379.335
12	79433	19507.7	7793.09	21006.7	21.7761	380.64
13	63096	20773.2	7312.8	22022.8	19.3936	382.12
14	50119	21907.3	6778.18	22931.9	17.1922	383.81
15	39811	22916.8	6204.64	23741.9	15.1494	385.94
16	31623	23773.6	5597.87	24423.8	13.2498	387.455
17	25119	24475.5	5083.08	24997.8	11.7324	388.78
18	19953	25099.8	4602.56	25518.3	10.3909	390.08
19	15849	25638.8	4162.38	25974.5	9.22135	391.43
20	12589	26118.1	3779	26390	8.23295	392.735
21	10000	26519.7	3431.25	26740.8	7.37225	394.085
22	7943.3	26916.5	3164.51	27101.9	6.70534	395.425
23	6309.6	27264.8	2941.45	27423	6.15751	396.92
24	5011.9	27601.3	2761.93	27739.2	5.71429	398.385
25	3981.1	27919.9	2617.78	28042.3	5.35641	399.925
26	3162.3	28230.2	2509.01	28341.4	5.07893	401.46
27	2511.9	28512.2	2427.4	28615.4	4.86617	403.02
28	1995.3	28829.4	2376.11	28927.2	4.71164	404.515
29	1584.9	29120.4	2342.48	29214.5	4.59904	405.87
30	1258.9	29416.6	2327.68	29508.5	4.52429	407.37
31	1000	29734.4	2332.7	29825.8	4.48574	408.86
32	794.33	30034.2	2349.32	30125.9	4.47265	410.465
33	630.96	30361.9	2380.28	30455	4.48265	412.205
34	501.19	30673.7	2422.21	30769.1	4.51512	413.52
35	398.11	31024.5	2475.82	31123.1	4.56266	414.805
36	316.23	31344.2	2537.69	31446.8	4.62869	416.08
37	251.19	31713	2610.25	31820.2	4.70533	417.89
38	199.53	32073	2690.69	32185.7	4.79547	419.16
39	158.49	32456.5	2780.76	32575.4	4.89696	420.435
40	125.89	32834.6	2876.47	32960.3	5.0066	422.07
41	100	33219.7	2981.81	33353.2	5.12914	424.145
42	79.433	33660.7	3102.42	33803.3	5.26594	426.305
43	63.096	34095	3230.02	34247.7	5.41181	427.986
44	50.119	34547.9	3371.47	34712	5.57374	429.551
45	39.811	35008.6	3525.06	35185.6	5.74982	438.731
46	31.623	35489.4	3694.64	35681.2	5.94339	440.476
47	25.119	36000.7	3880.78	36209.3	6.15258	442.211
48	19.953	36543.2	4104.5	36773	6.40854	444.106
49	15.849	37113	4336.48	37365.5	6.66453	446.106
50	12.589	37697.7	4589.03	37976	6.9406	448.316
51	10	38320.1	4867.93	38628.1	7.23968	450.621
52	7.9433	38940.9	5181.6	39284.1	7.57944	452.936
53	6.3096	39660.8	5535.45	40045.2	7.94544	455.341
54	5.0119	40357.3	5925.81	40790	8.35326	457.731
55	3.9811	41078.6	6365.11	41568.9	8.8079	460.201
56	3.1623	41879.9	6880.1	42441.3	9.32931	462.616
57	2.5119	42710	7478.25	43359.8	9.93145	465.171
58	1.9953	43598.7	8167.23	44357.1	10.6101	467.786
59	1.5849	44521.6	8976.9	45417.6	11.3997	470.531
60	1.2589	45477.1	9922.16	46546.9	12.3079	473.416
61	1	46556.1	11026.8	47844.2	13.325	476.706
62	0.79433	47770.7	12357.5	49343.2	14.5035	479.901
63	0.63096	48899.5	13842.8	50821.1	15.8061	483.397
64	0.50119	50295.2	15766.1	52708.4	17.4047	487.217
65	0.39811	51684	18055.1	54746.9	19.2561	491.417
66	0.31623	53488.4	20611.3	57322.2	21.0737	496.122
67	0.25119	55167.3	23992.5	60158.7	23.5044	501.472
68	0.19953	57212	27781.3	63600.4	25.9005	507.632
69	0.15849	59754.4	32334.4	67941.9	28.4188	514.847
70	0.12589	62555.3	37141.1	72750.5	30.699	523.347
71	0.1	64934.5	44084.6	78485.3	34.1729	533.567