File: data/20200503/Z_p32_1.txt
Index	Frequency (Hz)	Z' (Ω)	-Z'' (Ω)	Z (Ω)	-Phase (°)	Time (s)
1	1000000	3273.27	5816.23	6674.05	60.63	26.4942
2	794330	4447.36	6081.66	7534.29	53.823	28.4393
3	630960	5787.07	6587.46	8768.4	48.7008	30.4893
4	501190	7112.98	7233.01	10144.5	45.4794	32.5244
5	398110	8805.17	8309.03	12106.7	43.3395	34.3994
6	316230	10329.3	8810.38	13576.4	40.4625	36.0694
7	251190	11796.3	8896.17	14774.8	37.0218	40.1095
8	199530	13460.6	9192.6	16300.1	34.3302	41.9145
9	158490	15139.7	9357.74	17798.3	31.7199	43.6646
10	125890	16796.9	9381.41	19239.2	29.1842	45.3996
11	100000	18414.2	9284.2	20622.3	26.7566	47.2096
12	79433	20016	9062.66	21972.1	24.3596	49.0497
13	63096	21501.9	8762.14	23218.6	22.1712	50.8397
14	50119	22940.7	8364.5	24418.1	20.0325	52.4547
15	39811	24269.2	7893.82	25520.7	18.0177	53.9698
16	31623	25473.8	7344.55	26511.5	16.0832	56.2498
17	25119	26550.9	6786.97	27404.7	14.3389	58.0398
18	19953	27504	6237.74	28202.5	12.7782	59.8499
19	15849	28346.4	5695.28	28912.9	11.3605	62.7549
20	12589	29074.5	5192.95	29534.6	10.1267	64.2649
21	10000	29685.8	4696.35	30055	8.9898	65.98
22	7943.3	30252.4	4297.01	30556	8.08413	67.6
23	6309.6	30751.7	3945.47	31003.8	7.31115	69.225
24	5011.9	31191.4	3646.61	31403.9	6.66822	70.7501
25	3981.1	31625.3	3397.33	31807.3	6.13145	72.3201
26	3162.3	32025.6	3197.93	32184.9	5.70239	73.9851
27	2511.9	32389.8	3033.43	32531.6	5.35036	75.9102
28	1995.3	32745.3	2912.27	32874.6	5.08234	77.6752
29	1584.9	33104.7	2820.6	33224.7	4.86997	79.4302
30	1258.9	33439	2755.87	33552.3	4.71138	81.1503
31	1000	33788.4	2714.08	33897.3	4.59246	82.7253
32	794.33	34137.6	2695.55	34243.9	4.51478	84.5453
33	630.96	34487.5	2695.93	34592.7	4.46978	86.2404
34	501.19	34856	2712.19	34961.4	4.44929	87.8954
35	398.11	35225	2741.52	35331.5	4.45029	89.2604
36	316.23	35589.9	2789.13	35699	4.48104	91.0354
37	251.19	35968.6	2844.51	36080.9	4.52172	92.7355
38	199.53	36363.9	2912.13	36480.4	4.57864	94.3205
39	158.49	36755.8	2991.46	36877.4	4.65289	95.8855
40	125.89	37161.6	3079.96	37289.1	4.73786	97.5906
41	100	37585.8	3182.04	37720.2	4.83916	99.3656
42	79.433	38026.8	3296.12	38169.3	4.95396	101.261
43	63.096	38468.8	3427.35	38621.2	5.09128	103.296
44	50.119	38963.6	3574.95	39127.2	5.24227	105.251
45	39.811	39438.7	3737.41	39615.4	5.41347	114.676
46	31.623	39941.4	3922.35	40133.6	5.60861	116.631
47	25.119	40464.9	4137.17	40675.9	5.83769	119.316
48	19.953	41009.2	4388.13	41243.3	6.10762	121.521
49	15.849	41570.3	4664.35	41831.2	6.40203	124.006
50	12.589	42171.2	4982.64	42464.5	6.73841	126.466
51	10	42803.9	5342.18	43136	7.11406	128.966
52	7.9433	43491.7	5750.98	43870.3	7.53262	131.976
53	6.3096	44182.3	6230.08	44619.4	8.02628	134.571
54	5.0119	44941.5	6777.89	45449.7	8.57648	137.446
55	3.9811	45759.1	7406.88	46354.7	9.19455	140.231
56	3.1623	46636.9	8147.84	47343.3	9.91001	142.936
57	2.5119	47567.9	9002.24	48412.2	10.7165	145.966
58	1.9953	48595.1	9991.08	49611.6	11.618	148.922
59	1.5849	49727.4	11133.5	50958.5	12.6199	151.977
60	1.2589	50951.9	12469.6	52455.6	13.7518	155.392
61	1	52246.9	14015.9	54094.2	15.0168	159.132
62	0.79433	53825.4	15876.4	56118	16.434	162.857
63	0.63096	55505.9	17897.7	58320.1	17.8718	166.667
64	0.50119	57217.3	20374	60736.5	19.5998	171.047
65	0.39811	59328	23159.3	63688.1	21.3237	175.687
66	0.31623	61639.6	26585.4	67128.4	23.3307	180.862
67	0.25119	63940.7	30633.5	70900.1	25.5987	186.742
68	0.19953	67173.2	35133.9	75806.6	27.6111	193.177
69	0.15849	70432.5	40561.4	81277.1	29.9372	200.632
70	0.12589	74008.8	47531.9	87957.9	32.7105	209.283
71	0.1	79287	54943.8	96463.7	34.7209	219.578