File: data/20200503/Z_p32_2.txt
Index	Frequency (Hz)	Z' (Ω)	-Z'' (Ω)	Z (Ω)	-Phase (°)	Time (s)
1	1000000	3241.42	5827.2	6668.06	60.9147	252.624
2	794330	4448.22	6080.94	7534.22	53.8145	254.054
3	630960	5785.69	6630.92	8800.19	48.8943	255.694
4	501190	7232.82	7217.1	10217.6	44.9377	257.309
5	398110	8807.95	8303.25	12104.7	43.3105	258.884
6	316230	10325.5	8795.21	13563.6	40.4242	260.274
7	251190	11787.4	8888.44	14763.1	37.0185	262.719
8	199530	13442.4	9195.87	16286.9	34.3758	264.234
9	158490	15087.7	9338.49	17743.9	31.7553	265.754
10	125890	16778.1	9378.68	19221.4	29.2045	267.275
11	100000	18423.6	9281.73	20629.6	26.7387	268.88
12	79433	19996	9072.14	21957.8	24.4037	270.445
13	63096	21509.8	8762	23226	22.1635	271.93
14	50119	22944.2	8363.95	24421.1	20.0285	273.45
15	39811	24277.8	7887.74	25527	17.9987	274.845
16	31623	25478	7348.8	26516.6	16.0896	276.33
17	25119	26560.3	6792.04	27415	14.3444	277.835
18	19953	27503.8	6236.59	28202.1	12.776	279.295
19	15849	28351.4	5700.78	28918.9	11.3692	280.835
20	12589	29071.4	5181.3	29529.5	10.1055	282.26
21	10000	29670.2	4694.22	30039.2	8.99045	283.69
22	7943.3	30255.7	4294.02	30558.9	8.07772	285.165
23	6309.6	30747.2	3942.83	30999	7.30737	287.145
24	5011.9	31205.7	3645.39	31417.9	6.66299	288.805
25	3981.1	31630.6	3398.65	31812.7	6.1328	291.185
26	3162.3	32020.6	3197.8	32179.9	5.70305	292.685
27	2511.9	32397.5	3037.13	32539.5	5.35559	294.13
28	1995.3	32757.7	2912.42	32886.9	5.08069	295.605
29	1584.9	33104.2	2818.5	33224	4.86644	296.955
30	1258.9	33447.5	2755.33	33560.7	4.70927	298.33
31	1000	33800.4	2715.62	33909.4	4.59344	299.815
32	794.33	34152	2697.25	34258.4	4.51572	301.295
33	630.96	34517.1	2697.73	34622.3	4.46894	302.71
34	501.19	34861	2710.82	34966.3	4.44642	304.165
35	398.11	35228.9	2742.68	35335.5	4.45166	305.6
36	316.23	35599.6	2786.52	35708.5	4.47564	307.065
37	251.19	35988.1	2844.97	36100.4	4.52001	308.515
38	199.53	36377.5	2910.82	36493.7	4.5749	309.91
39	158.49	36797	2993.09	36918.6	4.65023	311.425
40	125.89	37189.7	3079.47	37317	4.73353	313.03
41	100	37607.9	3180.68	37742.1	4.83428	314.485
42	79.433	38040.6	3296.67	38183.2	4.953	315.915
43	63.096	38500.3	3428.88	38652.7	5.08939	317.455
44	50.119	38990.1	3575.41	39153.7	5.23938	319.04
45	39.811	39479.4	3740.81	39656.3	5.41281	328.266
46	31.623	39964.9	3923.71	40157.1	5.60726	329.986
47	25.119	40488.9	4139.83	40700	5.83799	331.636
48	19.953	41058.7	4395.51	41293.3	6.11049	333.621
49	15.849	41606	4667.89	41867	6.4014	335.776
50	12.589	42220.2	4983.57	42513.3	6.73191	337.931
51	10	42856.8	5339.84	43188.2	7.10229	340.336
52	7.9433	43540.4	5760.68	43919.8	7.53684	342.736
53	6.3096	44249.3	6233.43	44686.2	8.01854	345.211
54	5.0119	44996.4	6778.44	45504.1	8.56686	347.706
55	3.9811	45798.7	7413.74	46394.9	9.19508	350.421
56	3.1623	46684	8148.6	47389.8	9.90112	352.956
57	2.5119	47621.2	9008.26	48465.7	10.7118	355.621
58	1.9953	48632.2	9986.9	49647	11.6047	358.381
59	1.5849	49773.6	11147.6	51006.7	12.624	361.176
60	1.2589	50977.7	12479.3	52482.9	13.7555	364.166
61	1	52337.9	14080	54198.7	15.0573	367.511
62	0.79433	53912.7	15818.7	56185.5	16.3524	370.861
63	0.63096	55469.4	17891.4	58283.5	17.8769	374.506
64	0.50119	57305.2	20432.6	60838.9	19.6241	378.372
65	0.39811	59218.1	23295.2	63635.3	21.4737	382.707
66	0.31623	61541.4	26883.8	67157.2	23.5977	387.612
67	0.25119	64257.4	30578.3	71162.1	25.4485	393.112
68	0.19953	67445.7	35321.5	76134.9	27.6412	399.512
69	0.15849	70774.3	40686.2	81635.6	29.8934	406.922
70	0.12589	74068	47267	87864.9	32.5442	415.577
71	0.1	79116	55588.3	96692.3	35.0925	426.007