File: data/20200503/Z_p30_2.txt
Index	Frequency (Hz)	Z' (Ω)	-Z'' (Ω)	Z (Ω)	-Phase (°)	Time (s)
1	1000000	3609.1	6126.74	7110.73	59.4988	293.3
2	794330	4899.08	6281.3	7965.9	52.0477	294.95
3	630960	6369.25	6707.33	9249.63	46.481	296.53
4	501190	7826.99	7209.55	10641.4	42.6486	298.015
5	398110	9687.67	8141.21	12654.3	40.0426	299.515
6	316230	11267.9	8415.74	14063.8	36.7553	301.02
7	251190	12698.2	8242.77	15139	32.9888	304.45
8	199530	14256.4	8276.63	16484.8	30.1376	305.985
9	158490	15834.4	8127.12	17798.2	27.1695	307.345
10	125890	17215.5	7879.03	18932.8	24.5922	308.87
11	100000	18543.2	7526.23	20012.4	22.091	310.53
12	79433	19763.5	7101.12	21000.5	19.7636	312.05
13	63096	20852.8	6629.31	21881.2	17.636	313.585
14	50119	21840.7	6125.84	22683.5	15.6676	315.16
15	39811	22735.3	5617.53	23419	13.8789	316.77
16	31623	23494.5	5094.79	24040.6	12.2351	318.205
17	25119	24106	4631.91	24547	10.8767	319.651
18	19953	24691.3	4239.19	25052.6	9.74199	321.031
19	15849	25204.1	3869.18	25499.4	8.72754	322.521
20	12589	25661.1	3530.07	25902.7	7.83275	324.146
21	10000	26047.1	3217.64	26245.1	7.04216	325.771
22	7943.3	26439.2	2979.64	26606.6	6.42999	327.246
23	6309.6	26774.6	2775.8	26918.1	5.91886	328.566
24	5011.9	27103.3	2608.2	27228.5	5.49676	330.011
25	3981.1	27415.2	2471.82	27526.4	5.15201	331.461
26	3162.3	27710.6	2363.36	27811.2	4.87481	332.961
27	2511.9	28004.4	2277.22	28096.8	4.64887	334.466
28	1995.3	28279.3	2215.25	28365.9	4.4791	335.846
29	1584.9	28559	2168.39	28641.2	4.34194	337.171
30	1258.9	28846.9	2138.34	28926	4.23944	338.661
31	1000	29116.7	2118.46	29193.6	4.16137	340.096
32	794.33	29409.8	2110.19	29485.4	4.10401	341.476
33	630.96	29702.3	2109.76	29777.2	4.06291	342.831
34	501.19	30013.4	2117.69	30088	4.036	344.376
35	398.11	30312.3	2129.86	30387	4.01922	345.801
36	316.23	30627.6	2144.94	30702.7	4.00604	347.201
37	251.19	30926.8	2163.57	31002.4	4.00177	348.826
38	199.53	31251.9	2179.47	31327.8	3.98928	350.311
39	158.49	31566.7	2197.83	31643.2	3.98278	351.821
40	125.89	31882.8	2214.27	31959.6	3.97284	353.411
41	100	32199.6	2228.81	32276.6	3.95963	354.931
42	79.433	32544.1	2244.6	32621.5	3.9455	356.616
43	63.096	32866.8	2252.71	32943.9	3.92096	358.241
44	50.119	33210.3	2260.39	33287.1	3.89372	359.766
45	39.811	33573.6	2261.05	33649.7	3.85283	368.991
46	31.623	33908.8	2257.39	33983.8	3.80869	370.801
47	25.119	34243.1	2240.83	34316.4	3.74402	372.642
48	19.953	34584.9	2232.66	34656.9	3.69366	374.552
49	15.849	34925.6	2202.37	34994.9	3.60824	376.702
50	12.589	35248.2	2165.66	35314.7	3.51585	378.962
51	10	35598.9	2125.2	35662.3	3.41641	381.337
52	7.9433	35914.2	2074.82	35974.1	3.3064	383.897
53	6.3096	36228.1	2021.49	36284.5	3.19373	386.317
54	5.0119	36504.2	1963.92	36557	3.07953	388.867
55	3.9811	36777.2	1902.85	36826.3	2.96184	391.337
56	3.1623	37040	1857.44	37086.5	2.8708	394.067
57	2.5119	37263.3	1816.15	37307.5	2.79029	396.602
58	1.9953	37505.6	1792.92	37548.4	2.73688	399.277
59	1.5849	37706.5	1789.98	37749	2.71787	402.112
60	1.2589	37907.3	1803.89	37950.2	2.72447	405.042
61	1	38086.3	1857.97	38131.6	2.79284	410.207
62	0.79433	38267.2	1941.67	38316.5	2.90468	413.562
63	0.63096	38451.2	2047.75	38505.7	3.04845	417.257
64	0.50119	38603.3	2225.54	38667.4	3.29953	421.252
65	0.39811	38773.4	2449	38850.6	3.61412	425.477
66	0.31623	38923.4	2754.99	39020.8	4.04863	430.508
67	0.25119	39094.1	3206.36	39225.4	4.6887	435.993
68	0.19953	39257.5	3696.22	39431.2	5.37871	442.393
69	0.15849	39453.3	4366.04	39694.2	6.31485	449.903
70	0.12589	39751.6	5188.42	40088.8	7.43627	458.718
71	0.1	39939.6	6102.43	40403.1	8.68713	468.983