File: data/20200503/Z_p31_3.txt
Index	Frequency (Hz)	Z' (Ω)	-Z'' (Ω)	Z (Ω)	-Phase (°)	Time (s)
1	1000000	3300.31	5753.97	6633.27	60.1627	618.516
2	794330	4469.64	5972.48	7459.77	53.1898	620.672
3	630960	5778.97	6455.2	8664.08	48.1637	622.833
4	501190	7099.45	7029.84	9991.04	44.7177	625.084
5	398110	8840.33	8000.37	11923	42.1447	627.21
6	316230	10389.3	8411.55	13367.6	38.9948	629.381
7	251190	11807.3	8403.98	14492.8	35.4417	634.959
8	199530	13428.7	8582.98	15937.3	32.5848	637
9	158490	15017.8	8589.95	17300.9	29.7689	639.181
10	125890	16577.8	8435.71	18600.6	26.9696	641.987
11	100000	18048.9	8154.58	19805.5	24.3137	644.243
12	79433	19442.5	7763.58	20935.2	21.7674	648.225
13	63096	20687.6	7291.21	21934.8	19.4147	650.321
14	50119	21825.8	6762.64	22849.5	17.2154	652.522
15	39811	22846.6	6187.73	23669.7	15.1543	654.644
16	31623	23692.7	5585.52	24342.2	13.2652	656.675
17	25119	24388.9	5052.14	24906.7	11.7032	658.716
18	19953	25012.8	4591.79	25430.8	10.4024	660.762
19	15849	25559.2	4153.12	25894.4	9.22935	662.768
20	12589	26039.9	3771.55	26311.6	8.24124	664.829
21	10000	26438.2	3424.33	26659	7.37999	667.03
22	7943.3	26822	3157.51	27007.2	6.71401	669.066
23	6309.6	27190.2	2936.19	27348.3	6.16331	671.117
24	5011.9	27525.2	2755.62	27662.8	5.71698	673.243
25	3981.1	27828.8	2609.79	27950.9	5.35753	675.514
26	3162.3	28139.3	2502.86	28250.4	5.08282	677.7
27	2511.9	28448.3	2424.29	28551.4	4.87084	679.846
28	1995.3	28740.2	2369.52	28837.7	4.71315	682.102
29	1584.9	29041	2336.84	29134.9	4.6005	684.168
30	1258.9	29333	2321.09	29424.7	4.52433	686.389
31	1000	29640.1	2324.9	29731.1	4.48498	688.46
32	794.33	29942.8	2343.7	30034.3	4.47557	690.601
33	630.96	30262.1	2374.62	30355.1	4.48672	692.727
34	501.19	30584.4	2414.26	30679.5	4.51342	694.863
35	398.11	30920.6	2468.31	31019	4.56409	696.884
36	316.23	31273.9	2531.17	31376.2	4.62718	699.22
37	251.19	31631.4	2603.37	31738.4	4.70503	701.546
38	199.53	31985.1	2681.11	32097.3	4.79154	703.652
39	158.49	32362.3	2770.76	32480.7	4.89354	705.893
40	125.89	32750.2	2867.29	32875.4	5.00351	707.99
41	100	33135.4	2973.1	33268.5	5.12718	710.151
42	79.433	33552.1	3088.66	33694	5.25958	712.442
43	63.096	33988.8	3216.17	34140.6	5.40549	714.613
44	50.119	34443.9	3357.27	34607.2	5.56707	716.814
45	39.811	34902.5	3512.78	35078.8	5.74722	726.675
46	31.623	35387.9	3679.88	35578.7	5.93668	729.096
47	25.119	35906.5	3866.45	36114.1	6.14599	731.487
48	19.953	36442	4082.49	36669.9	6.39202	734.143
49	15.849	36993.8	4311.17	37244.1	6.64713	736.839
50	12.589	37578.9	4565.23	37855.2	6.92656	739.675
51	10	38188.8	4843.79	38494.7	7.22869	742.821
52	7.9433	38847.3	5154.09	39187.7	7.55761	746.032
53	6.3096	39528.5	5505.37	39910	7.92893	749.258
54	5.0119	40243.5	5896.59	40673.2	8.33582	752.359
55	3.9811	40973	6333.87	41459.7	8.78758	755.645
56	3.1623	41750.9	6844.45	42308.2	9.30998	759.051
57	2.5119	42574.7	7440.28	43219.9	9.91281	762.388
58	1.9953	43426.5	8127	44180.4	10.5999	765.904
59	1.5849	44376.4	8927.44	45265.5	11.3747	769.45
60	1.2589	45300.6	9849.84	46359.1	12.2671	773.186
61	1	46361.8	10976.8	47643.5	13.3202	777.432
62	0.79433	47539.4	12250.2	49092.4	14.4499	781.438
63	0.63096	48765.6	13775.1	50673.8	15.7737	785.944
64	0.50119	50077.7	15704.4	52482.4	17.4114	790.555
65	0.39811	51565.3	17927.3	54592.7	19.1706	795.546
66	0.31623	52997.8	20554.6	56844.1	21.1982	801.102
67	0.25119	54806.2	23816.7	59757.4	23.4879	807.433
68	0.19953	57236.3	27339.8	63430.7	25.5322	814.404
69	0.15849	59685	32094.4	67766.9	28.2682	822.446
70	0.12589	62420.6	37387.3	72760.8	30.9198	831.847
71	0.1	65319.3	43317.7	78377.5	33.5511	842.973