File: data/20200503/Z_p30_3.txt
Index	Frequency (Hz)	Z' (Ω)	-Z'' (Ω)	Z (Ω)	-Phase (°)	Time (s)
1	1000000	3601.33	6083.27	7069.36	59.3743	549.184
2	794330	4916.17	6293.55	7986.08	52.005	551.585
3	630960	6382.72	6678.28	9237.88	46.2963	554.031
4	501190	7783.57	7255.65	10640.9	42.9896	556.512
5	398110	9694.9	8148.87	12664.7	40.0481	558.948
6	316230	11275.5	8422.38	14073.8	36.7584	561.474
7	251190	12691.6	8252.25	15138.6	33.0325	567.132
8	199530	14258.8	8280.53	16488.8	30.145	569.388
9	158490	15827.4	8105.38	17782.1	27.1175	571.679
10	125890	17216	7886.01	18936.2	24.6107	573.945
11	100000	18546.9	7530.13	20017.3	22.0973	576.226
12	79433	19767.6	7107.06	21006.4	19.7751	578.487
13	63096	20873.9	6636.11	21903.3	17.6362	582.559
14	50119	21868.6	6145.81	22715.7	15.6972	584.82
15	39811	22759.7	5632.71	23446.3	13.9006	587.026
16	31623	23505.2	5096.87	24051.5	12.2346	589.352
17	25119	24127	4647.54	24570.5	10.9032	591.513
18	19953	24707.9	4245.76	25070.1	9.75037	593.639
19	15849	25229.3	3870.41	25524.5	8.7217	595.825
20	12589	25682.6	3534.14	25924.7	7.83515	598.056
21	10000	26061	3222.86	26259.5	7.04975	600.348
22	7943.3	26441.5	2982.74	26609.2	6.43607	602.304
23	6309.6	26793.5	2778.98	26937.2	5.92147	604.285
24	5011.9	27114.9	2611	27240.4	5.50026	606.306
25	3981.1	27424	2475.33	27535.5	5.15763	608.282
26	3162.3	27731.1	2364.97	27831.8	4.87451	610.223
27	2511.9	28014.6	2280.99	28107.4	4.65483	612.394
28	1995.3	28299.1	2217.31	28385.9	4.48011	614.375
29	1584.9	28591	2172.43	28673.4	4.34516	616.311
30	1258.9	28877.6	2139.77	28956.8	4.23775	618.282
31	1000	29162.2	2122.72	29239.4	4.16322	620.403
32	794.33	29461.4	2115.51	29537.2	4.10715	622.489
33	630.96	29746.6	2114.9	29821.7	4.06673	624.455
34	501.19	30033	2121.67	30107.9	4.04092	626.541
35	398.11	30342.7	2132.8	30417.6	4.02072	628.527
36	316.23	30643.8	2147.32	30718.9	4.00836	630.478
37	251.19	30965.7	2165.08	31041.3	3.99954	632.504
38	199.53	31272.5	2183.6	31348.6	3.9942	634.7
39	158.49	31604.8	2202.74	31681.4	3.98687	636.681
40	125.89	31905	2219.22	31982.1	3.97892	638.852
41	100	32229.9	2230.43	32307	3.95877	641.168
42	79.433	32557.6	2244.01	32634.8	3.94284	643.224
43	63.096	32893.9	2256.41	32971.2	3.92414	645.535
44	50.119	33265.5	2263.15	33342.4	3.892	647.651
45	39.811	33589.5	2261.29	33665.6	3.85141	657.508
46	31.623	33954.9	2259.65	34030	3.80734	659.829
47	25.119	34283	2243.04	34356.3	3.74336	662.225
48	19.953	34650.7	2238.4	34722.9	3.69612	664.751
49	15.849	34977.6	2210.52	35047.4	3.61618	667.342
50	12.589	35312.5	2176.81	35379.5	3.52749	670.108
51	10	35653.7	2129	35717.2	3.41726	673.179
52	7.9433	35970.2	2081.96	36030.4	3.31259	676.14
53	6.3096	36277.5	2021.52	36333.8	3.18943	679.246
54	5.0119	36554.8	1966.93	36607.7	3.07998	682.272
55	3.9811	36814.2	1911.9	36863.9	2.97291	685.353
56	3.1623	37085.7	1858.56	37132.2	2.869	688.534
57	2.5119	37321.6	1822.93	37366.1	2.79632	691.805
58	1.9953	37546.2	1798.26	37589.2	2.74207	695.146
59	1.5849	37750.3	1790.69	37792.8	2.7158	698.577
60	1.2589	37961.4	1811.04	38004.5	2.73137	702.148
61	1	38139	1864.92	38184.6	2.79941	706.205
62	0.79433	38321.7	1940.77	38370.8	2.89923	710.266
63	0.63096	38521.6	2051.97	38576.2	3.04915	714.512
64	0.50119	38656.7	2220.36	38720.4	3.28734	719.058
65	0.39811	38830.5	2463.62	38908.5	3.6303	724.099
66	0.31623	39011.6	2765.79	39109.6	4.05529	729.565
67	0.25119	39154.3	3163.45	39281.9	4.61915	735.746
68	0.19953	39402.8	3744.13	39580.2	5.42806	742.702
69	0.15849	39581.3	4390.35	39824.1	6.32937	750.768
70	0.12589	39857.8	5231.5	40199.7	7.47756	760.029
71	0.1	40168.9	6163.46	40639	8.72335	771.021