File: data/20200503/Z_p31_1.txt
Index	Frequency (Hz)	Z' (Ω)	-Z'' (Ω)	Z (Ω)	-Phase (°)	Time (s)
1	1000000	3291.89	5766.24	6639.73	60.2784	42.5336
2	794330	4485.73	5996.46	7488.61	53.2012	44.2636
3	630960	5789.58	6485.28	8693.57	48.2439	46.0386
4	501190	7170.36	7051.11	10056.5	44.5196	48.2187
5	398110	8874.52	8053.05	11983.7	42.2217	61.4489
6	316230	10406.9	8462.27	13413.2	39.1158	62.9389
7	251190	11855.3	8451.11	14559.2	35.4834	65.329
8	199530	13477.6	8626.3	16001.8	32.6212	66.629
9	158490	15087.6	8639.28	17386	29.7957	68.099
10	125890	16649.7	8483.14	18686.2	26.9992	69.4641
11	100000	18145	8201	19912.2	24.3216	70.9091
12	79433	19522.3	7807.67	21025.7	21.7982	72.1941
13	63096	20795	7334.09	22050.4	19.427	73.5791
14	50119	21934.9	6797.15	22963.9	17.2171	74.9542
15	39811	22956.2	6219.31	23783.7	15.1587	77.6442
16	31623	23805.4	5615.79	24458.8	13.2736	79.1392
17	25119	24515.5	5095.07	25039.4	11.7407	80.4493
18	19953	25129	4611.69	25548.7	10.3992	81.7793
19	15849	25685.7	4177.9	26023.3	9.23851	83.1243
20	12589	26164.1	3792.04	26437.5	8.24662	84.4343
21	10000	26559.7	3438.35	26781.4	7.37633	85.8544
22	7943.3	26949.8	3171.31	27135.8	6.7114	87.2594
23	6309.6	27310.6	2948.97	27469.4	6.16286	88.5444
24	5011.9	27645	2766.53	27783.1	5.71477	89.8744
25	3981.1	27972.6	2624.06	28095.4	5.35913	91.2495
26	3162.3	28271	2513.25	28382.5	5.08015	92.7695
27	2511.9	28556.4	2432.21	28659.8	4.86825	94.2995
28	1995.3	28880.4	2380.62	28978.4	4.71225	95.8995
29	1584.9	29149.3	2344.34	29243.4	4.59814	97.3496
30	1258.9	29458	2330.87	29550.1	4.52411	98.6496
31	1000	29767.7	2334.49	29859.1	4.48416	99.9546
32	794.33	30060.1	2352.21	30152	4.4743	101.325
33	630.96	30398.7	2383.2	30492	4.48272	102.63
34	501.19	30713.7	2424.9	30809.3	4.51424	104.21
35	398.11	31050.2	2476.06	31148.7	4.55933	105.5
36	316.23	31397.3	2540	31499.9	4.62508	106.79
37	251.19	31759.4	2615.42	31867	4.70773	108.11
38	199.53	32105.3	2693.06	32218.1	4.79486	109.48
39	158.49	32476.3	2781.62	32595.2	4.89549	110.945
40	125.89	32876.3	2879.64	33002.2	5.00577	112.455
41	100	33283	2986.34	33416.7	5.12718	113.81
42	79.433	33703.6	3104.64	33846.3	5.263	115.215
43	63.096	34116.2	3230.34	34268.8	5.409	116.715
44	50.119	34582	3372.92	34746.1	5.57068	118.51
45	39.811	35048.9	3529.12	35226.1	5.74981	127.735
46	31.623	35538	3698.76	35730	5.94188	130.135
47	25.119	36041.4	3884.08	36250.1	6.15085	131.885
48	19.953	36574	4106.99	36803.9	6.40705	133.87
49	15.849	37146.3	4336.17	37398.5	6.65813	136.24
50	12.589	37735.9	4589.94	38014	6.93501	138.5
51	10	38360.5	4871.06	38668.5	7.23676	140.825
52	7.9433	38991.9	5184.15	39335	7.57332	143.15
53	6.3096	39689.5	5533.7	40073.4	7.93729	145.655
54	5.0119	40378.9	5924.13	40811.2	8.34652	148.111
55	3.9811	41142.5	6372.21	41633.1	8.80409	151.541
56	3.1623	41932.1	6886.38	42493.8	9.32625	154.041
57	2.5119	42738.8	7479.37	43388.3	9.92636	156.791
58	1.9953	43610.3	8167.29	44368.5	10.6074	159.666
59	1.5849	44552	8979.71	45447.9	11.3956	162.446
60	1.2589	45531.5	9924.39	46600.6	12.2963	165.336
61	1	46614.1	11042.7	47904.2	13.3274	168.706
62	0.79433	47767.5	12315.9	49329.6	14.4578	173.586
63	0.63096	48961.8	13880.1	50891.2	15.8274	177.326
64	0.50119	50365.4	15733.4	52765.7	17.348	181.111
65	0.39811	51812.8	18061.5	54870.6	19.2181	185.331
66	0.31623	53487.9	20567.8	57306.1	21.0334	190.091
67	0.25119	55275.9	24011.4	60265.9	23.4798	195.466
68	0.19953	57159.4	27741.4	63535.7	25.8889	201.872
69	0.15849	59672.9	32373.5	67888.9	28.4805	209.117
70	0.12589	62726.2	37413.8	73036.7	30.8145	217.772
71	0.1	64991.7	43652.4	78290.8	33.8877	228.087