File: data/plate_beam/Z_beam5_20241205.txt
Index	Frequency (Hz)	Z' (Ω)	-Z'' (Ω)	Z (Ω)	-Phase (°)	Time (s)
1	1000000	2027.53	5798.31	6142.58	70.7265	53.0448
2	794328.25	2929.38	6738.12	7347.35	66.5032	63.39
3	630957.375	3957.32	7729.4	8683.55	62.8883	68.7951
4	501187	5187	8790.32	10206.6	59.456	71.5051
5	398107	6556.51	9949.91	11915.9	56.617	80.0953
6	316228	8139.03	11116.5	13777.5	53.79	82.2803
7	251189	10003.5	12352.5	15895.1	50.9981	88.9605
8	199526	12076.3	13599	18187.1	48.3938	91.1255
9	158489	14366.8	14845.9	20659.3	45.9396	93.5056
10	125893	17062	16004.7	23393.6	43.1688	95.1406
11	100000	19868.4	17099.2	26213.314	40.716	96.8706
12	79432.8	22763	17998	29018.6	38.3324	102.231
13	63095.7	26026	18491.3	31926.2	35.3935	106.846
14	50118.7	29323.9	18805.9	34836.1	32.6728	114.091
15	39810.7	32732.1	18895.8	37794.7	29.9972	116.816
16	31622.8	35956.1	18837.8	40592	27.6505	125.351
17	25118.9	39125.7	18612.1	43327	25.4404	128.941
18	19952.6	42179.7	18230.7	45950.9	23.3747	131.561
19	15848.9	45120.4	17742.7	48483.6	21.4663	139.691
20	12589.3	47912.6	17162.2	50893.6	19.7074	150.197
21	10000	50552.2	16520.1	53183	18.097	158.517
22	7943.28	53045.4	15794.5	55346.9	16.5811	164.832
23	6309.57	55424.1	15019.8	57423.2	15.1629	171.417
24	5011.87	57563.1	14252.8	59301.3	13.9069	183.317
25	3981.07	59587.8	13480.8	61093.7	12.7477	185.422
26	3162.28	61382.2	12737.5	62689.8	11.7231	187.327
27	2511.89	63104.9	12084.2	64251.5	10.8405	189.152
28	1995.26	64758.4	11466.2	65765.7	10.0408	191.002
29	1584.89	66094.1	10956.8	66996.1	9.41263	192.732
30	1258.93	67517.8	10381.5	68311.2	8.74129	194.482
31	1000	68858.5	10081.3	69592.5	8.3293	196.567
32	794.328	70206.3	9886.73	70899	8.01591	198.748
33	630.957	71334.9	9705.91	71992.1	7.74816	200.773
34	501.187	72628.6	9555.29	73254.5	7.495	202.568
35	398.107	73878.1	9399.88	74473.7	7.25107	204.368
36	316.228	75103.5	9445.53	75695.1	7.16828	206.388
37	251.189	76345.5	9569.13	76942.9	7.14418	208.418
38	199.526	77604.4	9770.9	78217.1	7.17615	210.473
39	158.489	78899.7	10036.6	79535.5	7.24947	212.513
40	125.893	80234.7	10384.8	80904	7.37482	214.583
41	100	81628.8	10792.8	82339.2	7.53183	216.658
42	79.4328	83086.5	11338.1	83856.5	7.77066	218.663
43	63.0957	84641.8	11876.8	85471	7.98747	220.873
44	50.1187	86272	12475.2	87169.3	8.22814	222.968
45	39.8107	88021.1	13143	88996.9	8.49249	232.878
46	31.6228	89853.7	13865.9	90917.2	8.7725	235.118
47	25.1189	91828.3	14658.1	92990.8	9.06933	237.403
48	19.9526	93909.6	15494.8	95179.4	9.36924	240.178
49	15.8489	96141.8	16393.3	97529.4	9.67656	242.818
50	12.5893	98485.8	17356.1	100003	9.99456	245.613
51	10	100992	18383.7	102652	10.3167	248.413
52	7.94328	103607	19537.6	105433	10.6791	251.448
53	6.30957	106384	20656.3	108370	10.9883	254.614
54	5.01187	109362	21853.2	111524	11.3002	257.674
55	3.98107	112552	23148.8	114908	11.622	260.859
56	3.16228	115808	24491.8	118370	11.9413	264.019
57	2.51189	119301	25978.5	122097	12.2847	267.284
58	1.99526	122841	27543.9	125892	12.638	270.804
59	1.58489	126710	29272.9	130048	13.0084	274.104
60	1.25893	130685	31100.5	134335	13.3862	277.494
61	1	134942	33113.9	138946	13.7875	283.879
62	0.794328	139431	35444	143866	14.2627	287.824
63	0.630957	144162	37831.6	149044	14.7042	291.909
64	0.501187	149088	40435.2	154474	15.1746	296.484
65	0.398107	154423	43372.2	160399	15.6882	301.444
66	0.316228	160030	46548.6	166662	16.2184	306.685
67	0.251189	165858	50136.9	173271	16.8194	312.8
68	0.199526	172075.035	54141.6	180392	17.4656	319.5
69	0.158489	178643	58623.7	188016	18.1679	327.295
70	0.125893	185641	63640.8	196246	18.9226	336.46
71	0.1	193092	69291.4	205149	19.7406	347.15