File: data/plate_beam/Z_beam5_20241212.txt
Index	Frequency (Hz)	Z' (Ω)	-Z'' (Ω)	Z (Ω)	-Phase (°)	Time (s)
1	1000000	2186.54	6279.79	6649.57	70.8026	53.0448
2	794328.25	3130.21	7337.91	7977.66	66.8978	63.39
3	630957.375	4238.39	8505.82	9503.31	63.5133	68.7951
4	501187	5554.85	9715.07	11191	60.2401	71.5051
5	398107	7040.91	11017.5	13075.2	57.4187	80.0953
6	316228	8841.49	12411.5	15238.7	54.5353	82.2803
7	251189	10854.6	13840.8	17589.5	51.8946	88.9605
8	199526	13165.8	15368.5	20236.8	49.4141	91.1255
9	158489	15770.9	16780.2	23028.2	46.7759	93.5056
10	125893	18871.2	18223.3	26233.7	43.9994	95.1406
11	100000	22274.9	19426.1	29555.8	41.092	96.8706
12	79432.8	25483.6	20513.9	32714.4	38.8335	102.231
13	63095.7	29271.7	21082	36073.3	35.762	106.846
14	50118.7	33118.2	21404.6	39433.2	32.8749	114.091
15	39810.7	37033.8	21445.7	42795.1	30.0745	116.816
16	31622.8	40704.4	21306.6	45943.7	27.6297	125.351
17	25118.9	44297.4	20968.9	49009.7	25.3313	128.941
18	19952.6	47715	20472.9	51921.7	23.2225	131.561
19	15848.9	50976.1	19894.2	54720.6	21.319	139.691
20	12589.3	54058	19258	57385.9	19.6083	150.197
21	10000	57013.9	18479.5	59933.9	17.9587	158.517
22	7943.28	59786.7	17750	62365.9	16.5355	164.832
23	6309.57	62432.1	16832.4	64661.4	15.0888	171.417
24	5011.87	64849.4	16034.9	66802.4	13.8886	183.317
25	3981.07	67122.8	15231	68829.2	12.7847	185.422
26	3162.28	69215.4	14433.7	70704.4	11.7793	187.327
27	2511.89	71130.8	13737.09	72445.1	10.9306	189.152
28	1995.26	72954	13029.4	74108.4	10.1262	191.002
29	1584.89	74661.2	12441.3	75690.7	9.46068	192.732
30	1258.93	76264.3	11914.8	77189.4	8.87955	194.482
31	1000	77772.6	11525.9	78622	8.42989	196.567
32	794.328	79279.7	11079.9	80050.2	7.95594	198.748
33	630.957	80694.6	10830.1	81418.1	7.64407	200.773
34	501.187	82083.6	10690.1	82776.8	7.42014	202.568
35	398.107	83478.2	10646.7	84154.4	7.26818	204.368
36	316.228	84866.9	10678.2	85536	7.17143	206.388
37	251.189	86268	10794.4	86940.7	7.13214	208.418
38	199.526	87698.3	10993.1	88384.6	7.14483	210.473
39	158.489	89153.8	11260.9	89862.1	7.19884	212.513
40	125.893	90639.8	11605.1	91379.7	7.29619	214.583
41	100	92210.1	12035.1	92992.2	7.4361	216.658
42	79.4328	93821.8	12633	94668.5	7.6687	218.663
43	63.0957	95550.1	13214.6	96459.6	7.87409	220.873
44	50.1187	97353.9	13858.2	98335.3	8.10154	222.968
45	39.8107	99290.2	14588.1	100356	8.35831	232.878
46	31.6228	101319	15378.8	102479	8.63087	235.118
47	25.1189	103504	16249.4	104772	8.92219	237.403
48	19.9526	105806	17169.9	107190	9.2174	240.178
49	15.8489	108268	18175.2	109783	9.52951	242.818
50	12.5893	110871	19239.5	112528	9.84454	245.613
51	10	113663	20370.5	115474	10.1606	248.413
52	7.94328	116554	21677.2	118552	10.5358	251.448
53	6.30957	119623	22913.6	121797	10.8436	254.614
54	5.01187	122933	24241.3	125300	11.1552	257.674
55	3.98107	126466	25668.7	129044.766	11.4734	260.859
56	3.16228	130091	27150.1	132894	11.7885	264.019
57	2.51189	133974	28795	137034	12.13	267.284
58	1.99526	137908	30484.1	141237	12.4646	270.804
59	1.58489	142207	32379.3	145846	12.8271	274.104
60	1.25893	146624.643	34380.3	150601	13.1962	277.494
61	1	151350	36579.6	155708	13.5872	283.879
62	0.794328	156286	39217.5	161131	14.0866	287.824
63	0.630957	161531	41778.9	166846	14.5014	291.909
64	0.501187	167033	44585.4	172881	14.9453	296.484
65	0.398107	172983	47750.7	179453	15.4318	301.444
66	0.316228	179176	51161.1	186337	15.9359	306.685
67	0.251189	185666	54991.1	193639	16.4984	312.8
68	0.199526	192569.588	59269.9	201484	17.1075	319.5
69	0.158489	199873	64040.5	209882	17.7658	327.295
70	0.125893	207591	69377.3	218877	18.4797	336.46
71	0.1	215844	75394.1	228633	19.2542	347.15