File: data/plate_beam/Z_beam7_20241212.txt
Index	Frequency (Hz)	Z' (Ω)	-Z'' (Ω)	Z (Ω)	-Phase (°)	Time (s)
1	1000000	3991.31	9144.44	9977.54	66.42	53.0448
2	794328.25	5354.3	10564.2	11843.6	63.1226	63.39
3	630957.375	6956.1	12135.7	13987.9	60.1789	68.7951
4	501187	8809.36	13878.3	16438.1	57.5943	71.5051
5	398107	10834.4	15734.6	19104	55.4499	80.0953
6	316228	13327.6	17860.4	22285	53.2695	82.2803
7	251189	16144.1	19980.2	25687.4	51.0616	88.9605
8	199526	19520.7	22441.2	29743.3	48.9814	91.1255
9	158489	23119.6	24857.9	33947.4	47.075	93.5056
10	125893	27531.1	27219.6	38715.2	44.6741	95.1406
11	100000	32153	29434.7	43591.4	42.4728	96.8706
12	79432.8	37612.9	31488	49053.3	39.9347	102.231
13	63095.7	43418.5	32827.6	54431.7	37.092	106.846
14	50118.7	49441.7	33880.2	59936.2	34.4211	114.091
15	39810.7	55743.8	34527	65570.4	31.7736	116.816
16	31622.8	61739.7	34924.9	70933.4	29.496	125.351
17	25118.9	67813.6	35069.9	76345.1	27.3458	128.941
18	19952.6	73712.8	34890.2	81553.1	25.3295	131.561
19	15848.9	79454.4	34536.1	86635.7	23.4929	139.691
20	12589.3	85009.3	33995.7	91554.8	21.7967	150.197
21	10000	90411.6	33240.4	96328.5	20.1863	158.517
22	7943.28	95504.5	32497.4	100882	18.7919	164.832
23	6309.57	100479	31404.8	105273	17.3567	171.417
24	5011.87	105260	30245	109519	16.0312	183.317
25	3981.07	109692	29118.7	113491	14.8668	185.422
26	3162.28	113920	27941.2	117297	13.7809	187.327
27	2511.89	117895	26904.3	120926	12.855	189.152
28	1995.26	121702	25816.1	124410	11.9764	191.002
29	1584.89	125324	24871.5	127768.037	11.225	192.732
30	1258.93	128618.975	24130.4	130863	10.6258	194.482
31	1000	131846	23450.9	133916	10.0855	196.567
32	794.328	135000	22867.2	136923	9.61388	198.748
33	630.957	138121	22246.8	139901.42	9.14989	200.773
34	501.187	141002	22061.1	142717	8.89238	202.568
35	398.107	143913	21890.9	145569	8.64905	204.368
36	316.228	146820	21899.2	148444	8.4835	206.388
37	251.189	149768	22035.7	151380.537	8.36998	208.418
38	199.526	152736	22331.9	154360	8.31841	210.473
39	158.489	155734	22728.6	157383.849	8.30341	212.513
40	125.893	158799	23288.9	160497	8.34333	214.583
41	100	162000	23968	163764	8.41588	216.658
42	79.4328	165296	24886.6	167159	8.56204	218.663
43	63.0957	168764	25783.4	170722.118	8.68636	220.873
44	50.1187	172348	26766	174414	8.82765	222.968
45	39.8107	176166	27868.4	178356	8.98937	232.878
46	31.6228	180120	29047.3	182447	9.161	235.118
47	25.1189	184309	30323.9	186787	9.34302	237.403
48	19.9526	188687	31680.1	191328	9.53096	240.178
49	15.8489	193287	33108.5	196102	9.71998	242.818
50	12.5893	198122	34609.4	201122	9.90888	245.613
51	10	203205	36184.2	206401	10.0967	248.413
52	7.94328	208388	38102.7	211842.527	10.3618	251.448
53	6.30957	213879	39769.1	217545.297	10.5334	254.614
54	5.01187	219719	41547.6	223612	10.7079	257.674
55	3.98107	225858	43371.3	229985	10.8701	260.859
56	3.16228	232094	45242.5	236463	11.0304	264.019
57	2.51189	238777	47314.9	243420.156	11.2082	267.284
58	1.99526	245468	49378.6	250385	11.3739	270.804
59	1.58489	252691	51581.8	257902	11.5373	274.104
60	1.25893	260029	53841.9	265545	11.6984	277.494
61	1	267792	56184.8	273623	11.8492	283.879
62	0.794328	275578	59380.5	281903	12.1599	287.824
63	0.630957	283802	61729.1	290438	12.2711	291.909
64	0.501187	292594	62668.2	299230	12.089	296.484
65	0.398107	301098	65782.6	308200	12.3241	301.444
66	0.316228	309493	69189.9	317132.503	12.6018	306.685
67	0.251189	317836	73261	326170	12.9799	312.8
68	0.199526	326340	78171.5	335572	13.4708	319.5
69	0.158489	334958	84086.8	345351	14.0922	327.295
70	0.125893	343943	91321.6	355860	14.8697	336.46
71	0.1	353439	100010	367316	15.7995	347.15