File: data/plate_beam/Z_beam2_20241212.txt
Index	Frequency (Hz)	Z' (Ω)	-Z'' (Ω)	Z (Ω)	-Phase (°)	Time (s)
1	1000000	5284.24	8402.75	9926.2	57.8354	53.0448
2	794328.25	6569.19	9528.51	11573.5	55.4167	63.39
3	630957.375	8073.45	10783.9	13471.2	53.1793	68.7951
4	501187	9811.15	12151.8	15618.122	51.0833	71.5051
5	398107	11816.6	13540.4	17971.5	48.889	80.0953
6	316228	14184.5	15036.9	20671.5	46.6709	82.2803
7	251189	16922.1	16571	23684.5	44.3995	88.9605
8	199526	19925	17932.3	26806.2	41.9869	91.1255
9	158489	23089.772	19318.1	30105.2	39.9175	93.5056
10	125893	26787.1	20224.6	33564.6	37.0532	95.1406
11	100000	30657.3	21138.7	37238.6	34.5869	96.8706
12	79432.8	34311.1	21704.2	40599.6	32.3162	102.231
13	63095.7	38362.6	21643.6	44047	29.4311	106.846
14	50118.7	42295.5	21297.4	47355	26.727	114.091
15	39810.7	46113.3	20745.2	50564.8	24.2218	116.816
16	31622.8	49432.2	20199.4	53399.9	22.2263	125.351
17	25118.9	52591.6	19532.5	56101.656	20.375	128.941
18	19952.6	55566.5	18854.6	58678.2	18.7429	131.561
19	15848.9	58311.2	18218	61090.8	17.3502	139.691
20	12589.3	61083.8	17519.9	63546.6	16.0038	150.197
21	10000	63537.8	17044.4	65784.2	15.0164	158.517
22	7943.28	65994	16447.7	68012.8	13.9947	164.832
23	6309.57	68386.9	15846	70198.7	13.0458	171.417
24	5011.87	70647.2	15279.4	72280.7	12.2038	183.317
25	3981.07	72812	14724.8	74286	11.4327	185.422
26	3162.28	74851.3	14106.5	76168.9	10.6728	187.327
27	2511.89	76789.3	13540	77973.9	9.99998	189.152
28	1995.26	78594.144	13036.4	79668	9.41787	191.002
29	1584.89	80326.2	12659.6	81317.7	8.9563	192.732
30	1258.93	81935.1	12268.9	82848.6	8.51613	194.482
31	1000	83530.8	11955.9	84382.1	8.1455	196.567
32	794.328	85122	11732.7	85926.8	7.84785	198.748
33	630.957	86687.8	11651.8	87467.4	7.65529	200.773
34	501.187	88198	11623.1	88960.6	7.50739	202.568
35	398.107	89747.8	11726.4	90510.7	7.44408	204.368
36	316.228	91324.2	11919.7	92098.8	7.43627	206.388
37	251.189	92923.5	12188.5	93719.4	7.47265	208.418
38	199.526	94592.794	12531.2	95419.2	7.54632	210.473
39	158.489	96305	12939.6	97170.4	7.65244	212.513
40	125.893	98108	13411	99020.3	7.78387	214.583
41	100	100006.557	13961	100976	7.94717	216.658
42	79.4328	101969	14635.6	103013.879	8.16789	218.663
43	63.0957	104077	15257.1	105189	8.33987	220.873
44	50.1187	106281	15909.3	107465	8.51345	222.968
45	39.8107	108630	16598.7	109890	8.68766	232.878
46	31.6228	111069	17293	112407.042	8.84968	235.118
47	25.1189	113669	18011.6	115087.361	9.00402	237.403
48	19.9526	116359	18711.2	117854	9.13529	240.178
49	15.8489	119182	19425.4	120755	9.25717	242.818
50	12.5893	122119	20109.4	123763	9.35103	245.613
51	10	125183	20795.2	126899	9.43172	248.413
52	7.94328	128272	21578.9	130075	9.5493	251.448
53	6.30957	131489.773	22195.4	133350	9.58117	254.614
54	5.01187	134822	22805.8	136736.942	9.60101	257.674
55	3.98107	138282	23400.9	140248	9.60495	260.859
56	3.16228	141717	23977.8	143731	9.60321	264.019
57	2.51189	145260	24575.9	147324	9.60273	267.284
58	1.99526	148744	25168.1	150858	9.60373	270.804
59	1.58489	152371	25808.3	154542	9.61339	274.104
60	1.25893	155926	26493.3	158160	9.643	277.494
61	1	159534	27260.2	161846	9.69671	283.879
62	0.794328	163102	28393.5	165555	9.87533	287.824
63	0.630957	166629	29446.1	169211	10.0216	291.909
64	0.501187	170101	30791.5	172865	10.2605	296.484
65	0.398107	173543	32561.3	176572	10.6267	301.444
66	0.316228	176887	34825	180283	11.1377	306.685
67	0.251189	180109	37860.5	184046	11.8712	312.8
68	0.199526	183432	41792.5	188133	12.835	319.5
69	0.158489	186851	46796.4	192622	14.0604	327.295
70	0.125893	190526	52980.4	197755	15.5399	336.46
71	0.1	194645	60527.6	203838	17.2739	347.15