File: data/plate_beam/Z_beam1_20241212.txt
Index	Frequency (Hz)	Z' (Ω)	-Z'' (Ω)	Z (Ω)	-Phase (°)	Time (s)
1	1000000	2961.02	7772.81	8317.71	69.1459	53.0448
2	794328.25	4189.51	9128.21	10043.7	65.3466	63.39
3	630957.375	5437.9	10504.9	11828.9	62.6316	68.7951
4	501187	6931.85	12074.6	13922.9	60.1405	71.5051
5	398107	8670.04	13849.2	16339.2	57.9521	80.0953
6	316228	11037.2	15934.2	19383.4	55.2906	82.2803
7	251189	13034.2	17908.9	22149.9	53.9526	88.9605
8	199526	15809.1	20201.4	25651.9	51.9542	91.1255
9	158489	18972.4	22655.8	29550.6	50.0566	93.5056
10	125893	22717.3	25127.3	33874.1	47.8837	95.1406
11	100000	26638.1	27732.2	38453.4	46.1529	96.8706
12	79432.8	31290.9	30338.3	43583.6	44.1145	102.231
13	63095.7	36611.1	32415.8	48899.5	41.522	106.846
14	50118.7	42311.9	34409.3	54537.1	39.119	114.091
15	39810.7	48497.2	36189.9	60511.9	36.7313	116.816
16	31622.8	54731.2	37748.8	66486.7	34.5945	125.351
17	25118.9	61291	39085.1	72692.7	32.5256	128.941
18	19952.6	68024	40064.1	78945.5	30.4968	131.561
19	15848.9	74836.7	40752.1	85213.1	28.5704	139.691
20	12589.3	81716.9	41038.8	91443.1	26.6661	150.197
21	10000	88544.2	41071.3	97606	24.8843	158.517
22	7943.28	95360.7	40697.9	103682	23.1118	164.832
23	6309.57	102057	39812.3	109547	21.3108	171.417
24	5011.87	108372	38727.3	115084	19.6645	183.317
25	3981.07	114427	37469.8	120405	18.1314	185.422
26	3162.28	120145	36064.9	125441	16.7086	187.327
27	2511.89	125582	34674.1	130281	15.4352	189.152
28	1995.26	130605	33260.5	134773	14.2876	191.002
29	1584.89	135231	31825.8	138925	13.2433	192.732
30	1258.93	139645.46	30581.6	142955	12.3524	194.482
31	1000	143920	29280.4	146869	11.4998	196.567
32	794.328	147818	28410.5	150524	10.8795	198.748
33	630.957	151688	27387.4	154141	10.2345	200.773
34	501.187	155187	26817.1	157487	9.80417	202.568
35	398.107	158699	26288.8	160862	9.40573	204.368
36	316.228	162129	25973.4	164196	9.10155	206.388
37	251.189	165481	25881.4	167493.042	8.88908	208.418
38	199.526	168908	25934.7	170887	8.72922	210.473
39	158.489	172280	26232.7	174266	8.65782	212.513
40	125.893	175714	26715.1	177733	8.64491	214.583
41	100	179247	27368.5	181324	8.68124	216.658
42	79.4328	182893	28412.4	185087	8.83032	218.663
43	63.0957	186747	29435.8	189052.559	8.95751	220.873
44	50.1187	190722	30611.6	193163	9.11844	222.968
45	39.8107	194962	31992.4	197569	9.31894	232.878
46	31.6228	199410	33513.1	202206	9.54007	235.118
47	25.1189	204136	35202	207149	9.78407	237.403
48	19.9526	209145	37022.5	212397	10.0384	240.178
49	15.8489	214470	39024.5	217991	10.3126	242.818
50	12.5893	220100	41127.4	223910	10.5841	245.613
51	10	226145	43348.3	230262	10.8511	248.413
52	7.94328	232358	45954.5	236858	11.1873	251.448
53	6.30957	239068	48295.7	243897	11.421	254.614
54	5.01187	246268	50722.1	251437	11.6381	257.674
55	3.98107	253946	53257.1	259470.219	11.8443	260.859
56	3.16228	261908	55694	267764	12.005	264.019
57	2.51189	270379	58274.6	276588	12.1628	267.284
58	1.99526	278974	60657.8	285492	12.267	270.804
59	1.58489	288201	62927.6	294991	12.317	274.104
60	1.25893	297628	65280.3	304703	12.3711	277.494
61	1	307541	67480.5	314857	12.3757	283.879
62	0.794328	318408	67916.3	325571	12.0407	287.824
63	0.630957	328617	70165.7	336024	12.0527	291.909
64	0.501187	338877	72345.4	346513	12.0509	296.484
65	0.398107	349388	74477.1	357238	12.0333	301.444
66	0.316228	359774	76756.6	367871	12.0433	306.685
67	0.251189	369893	79435.9	378327	12.1204	312.8
68	0.199526	379941	82586.5	388813	12.2634	319.5
69	0.158489	389834	86648.9	399347	12.5315	327.295
70	0.125893	399708	91965	410151	12.9571	336.46
71	0.1	409918	98716.7	421637	13.5402	347.15