File: data/plate_beam/Z_beam1_20241205.txt
Index	Frequency (Hz)	Z' (Ω)	-Z'' (Ω)	Z (Ω)	-Phase (°)	Time (s)
1	1000000	2713.11	7098.63	7599.44	69.083	53.0448
2	794328.25	3690.9	8245.28	9033.68	65.8849	63.39
3	630957.375	4889.74	9511.8	10695	62.7936	68.7951
4	501187	6269.5	10925.6	12596.6	60.1511	71.5051
5	398107	7829.61	12423.1	14684.6	57.779	80.0953
6	316228	9662.66	14191.4	17168.6	55.7497	82.2803
7	251189	11755.4	16106.9	19940.4	53.8767	88.9605
8	199526	14278.1	18047.8	23012.8	51.6515	91.1255
9	158489	17165.3	20222.4	26525.3	49.6745	93.5056
10	125893	20457.4	22540.4	30439.7	47.7735	95.1406
11	100000	23839.3	24823.9	34417.1	46.159	96.8706
12	79432.8	27981.6	27035.1	38908.5	44.0144	102.231
13	63095.7	32662.6	28938.9	43638.3	41.5408	106.846
14	50118.7	37695.1	30762.1	48654.2	39.2171	114.091
15	39810.7	43208.7	32379.6	53994.674	36.847	116.816
16	31622.8	48788	33829.1	59369	34.737	125.351
17	25118.9	54679.9	35001.2	64922.8	32.6238	128.941
18	19952.6	60715.7	35858.2	70513.9	30.5658	131.561
19	15848.9	66930.3	36429.1	76202	28.5588	139.691
20	12589.3	73073.8	36636.9	81743.7	26.6278	150.197
21	10000	79167.6	36465.6	87162.2	24.7314	158.517
22	7943.28	85129.1	36195.8	92504.6	23.0346	164.832
23	6309.57	91041.5	35255.9	97629.5	21.169	171.417
24	5011.87	96642	34182.4	102509	19.4787	183.317
25	3981.07	101932	32907.1	107112	17.8919	185.422
26	3162.28	106878	31585.5	111447	16.4639	187.327
27	2511.89	111508	30215.6	115529	15.1615	189.152
28	1995.26	115836	28907	119388	14.012	191.002
29	1584.89	119887	27679.2	123041	13.0005	192.732
30	1258.93	123789	26492.6	126592	12.0799	194.482
31	1000	127181	25412.5	129695	11.2997	196.567
32	794.328	130664	24491.7	132939	10.6164	198.748
33	630.957	133867	23908.8	135985	10.1263	200.773
34	501.187	136951	23173.5	138898	9.60404	202.568
35	398.107	139947.384	22737	141782	9.22813	204.368
36	316.228	142892	22546.8	144659	8.96677	206.388
37	251.189	145800	22502.8	147527	8.77377	208.418
38	199.526	148759	22657.7	150474	8.66028	210.473
39	158.489	151693	23001.5	153427	8.62219	212.513
40	125.893	154727	23485.6	156499	8.6309	214.583
41	100	157867	24149.5	159704	8.69733	216.658
42	79.4328	161071	25097.3	163014	8.85637	218.663
43	63.0957	164486	26068.2	166539	9.00551	220.873
44	50.1187	168028	27165.3	170210	9.18363	222.968
45	39.8107	171816	28432.4	174153	9.39625	232.878
46	31.6228	175773	29831.3	178286.646	9.63217	235.118
47	25.1189	180008	31364.6	182720	9.88403	237.403
48	19.9526	184489	33001.9	187418	10.142	240.178
49	15.8489	189253	34769.2	192421	10.4102	242.818
50	12.5893	194302	36658.7	197729.602	10.6843	245.613
51	10	199711	38615.8	203410	10.9436	248.413
52	7.94328	205290	40885.6	209322	11.2636	251.448
53	6.30957	211292	42937.1	215611	11.4868	254.614
54	5.01187	217725.555	45052	222338	11.6907	257.674
55	3.98107	224588	47227.9	229500	11.8755	260.859
56	3.16228	231645	49358	236845	12.0285	264.019
57	2.51189	239147	51550	244640	12.1644	267.284
58	1.99526	246763	53598.9	252517	12.2548	270.804
59	1.58489	254978	55693.5	260989	12.3213	274.104
60	1.25893	263306	57621.6	269537.245	12.344	277.494
61	1	272002	59467.3	278427	12.3324	283.879
62	0.794328	280708	62015	287477	12.4579	287.824
63	0.630957	290327	61510.4	296771	11.9622	291.909
64	0.501187	299171	63443.7	305824	11.973	296.484
65	0.398107	308223	65518.6	315110	12.0007	301.444
66	0.316228	317119	67713.6	324268	12.0532	306.685
67	0.251189	325853	70378.1	333367	12.1876	312.8
68	0.199526	334529	73710	342553.248	12.426	319.5
69	0.158489	343188.487	77949.1	351930	12.7966	327.295
70	0.125893	351842	83324.2	361574	13.3235	336.46
71	0.1	360683	90292.7	371814	14.0545	347.15