File: data/plate_beam/Z_beam1_20241129.txt
Index	Frequency (Hz)	Z' (Ω)	-Z'' (Ω)	Z (Ω)	-Phase (°)	Time (s)
1	1000000	3063.62	7260.7	7880.58	67.1229	53.0448
2	794328.25	4125.4	8411.3	9368.5	63.8739	63.39
3	630957.375	5580.93	9772.33	11253.7	60.2695	68.7951
4	501187	6900.75	10973.2	12962.7	57.8354	71.5051
5	398107	8524.63	12471.3	15106.4	55.6459	80.0953
6	316228	10481.2	14088.6	17559.7	53.3527	82.2803
7	251189	12662.1	15722.7	20187.5	51.1541	88.9605
8	199526	15154.3	17580	23210.1	49.2381	91.1255
9	158489	17955.5	19513.2	26517.2	47.3806	93.5056
10	125893	20979.7	21374	29949.9	45.5334	95.1406
11	100000	24671.7	23072.5	33779.2	43.0816	96.8706
12	79432.8	28623.2	25109.1	38075.7	41.2581	102.231
13	63095.7	33007.5	26514.4	42338.1	38.7744	106.846
14	50118.7	37623.3	27802.4	46781.3	36.4632	114.091
15	39810.7	42605.6	28898.9	51481.9	34.1486	116.816
16	31622.8	47520.3	29855.9	56120.9	32.1402	125.351
17	25118.9	52686.8	30550.7	60903.5	30.1075	128.941
18	19952.6	57862.3	31016	65650.9	28.1927	131.561
19	15848.9	63103.8	31262.1	70423.1	26.3542	139.691
20	12589.3	68251.1	31208.2	75047.8	24.5725	150.197
21	10000	73443.5	30895.566	79677.3	22.8151	158.517
22	7943.28	78347.5	30667.7	84135.8	21.3769	164.832
23	6309.57	83258.1	29779.4	88423.6	19.6809	171.417
24	5011.87	87903	28845.4	92514.9	18.1673	183.317
25	3981.07	92264.8	27754.2	96348.8	16.7418	185.422
26	3162.28	96433.8	26593.4	100033	15.4172	187.327
27	2511.89	100305	25469.8	103488	14.2476	189.152
28	1995.26	103925	24355.9	106741.08	13.1898	191.002
29	1584.89	107330	23355.9	109842	12.2766	192.732
30	1258.93	110513	22366.5	112753	11.4415	194.482
31	1000	113555	21539.9	115579.889	10.7407	196.567
32	794.328	116368	20816.1	118215	10.1419	198.748
33	630.957	119043	20232.6	120750	9.64585	200.773
34	501.187	121700	19754.9	123293	9.22006	202.568
35	398.107	124238	19486.6	125757.02	8.91417	204.368
36	316.228	126766.702	19370.5	128238	8.68785	206.388
37	251.189	129290	19421.5	130740	8.54291	208.418
38	199.526	131815	19641.1	133270	8.475	210.473
39	158.489	134394	19983.7	135871	8.45766	212.513
40	125.893	137025	20493.5	138549	8.50611	214.583
41	100	139801	21152.8	141392	8.60398	216.658
42	79.4328	142603	22060.8	144299	8.79402	218.663
43	63.0957	145625	22975.6	147427	8.96577	220.873
44	50.1187	148769	23999.3	150692	9.16397	222.968
45	39.8107	152130.926	25164	154198	9.39227	232.878
46	31.6228	155658	26433	157886	9.63773	235.118
47	25.1189	159431	27831.1	161842	9.90209	237.403
48	19.9526	163410	29300.7	166016	10.1656	240.178
49	15.8489	167677	30882	170497	10.4356	242.818
50	12.5893	172190	32535.1	175237	10.6998	245.613
51	10	177007	34261	180292	10.9546	248.413
52	7.94328	181991.576	36289.5	185574	11.277	251.448
53	6.30957	187343	38059.4	191170	11.4836	254.614
54	5.01187	193068	39877.8	197143	11.6702	257.674
55	3.98107	199177	41718.8	203499	11.8299	260.859
56	3.16228	205435	43508.9	209992	11.9579	264.019
57	2.51189	212105	45298.2	216888	12.0552	267.284
58	1.99526	218841.466	47013.7	223834	12.1246	270.804
59	1.58489	226094	48675.3	231274	12.1496	274.104
60	1.25893	233392	50187.4	238727.273	12.1358	277.494
61	1	240983	51601.2	246446	12.0861	283.879
62	0.794328	248591	53482.4	254279	12.1417	287.824
63	0.630957	256330	54658.4	262093	12.0372	291.909
64	0.501187	264044	55909.4	269899	11.9554	296.484
65	0.398107	271845	57300.7	277818	11.9028	301.444
66	0.316228	279417	58929.9	285564	11.9093	306.685
67	0.251189	286973	60339.5	293248	11.8741	312.8
68	0.199526	294154.938	63303.9	300890	12.1452	319.5
69	0.158489	301317	67245.6	308729	12.5807	327.295
70	0.125893	308545	72260.9	316894	13.181	336.46
71	0.1	316042	78655.4	325683	13.9756	347.15