File: data/plate_beam/Z_beam4_20241219.txt
Index	Frequency (Hz)	Z' (Ω)	-Z'' (Ω)	Z (Ω)	-Phase (°)	Time (s)
1	1000000	2423.05	6780.41	7200.35	70.3351	53.0448
2	794328.25	3460.05	7893.52	8618.57	66.3302	63.39
3	630957.375	4757.16	9038.36	10213.8	62.2408	68.7951
4	501187	6217.43	10310	12039.7	58.9081	71.5051
5	398107	7846.92	11595.3	14000.9	55.9126	80.0953
6	316228	9730.13	12961.4	16207.2	53.1045	82.2803
7	251189	11892.9	14423	18694	50.4917	88.9605
8	199526	14379.5	15848.7	21399.8	47.7826	91.1255
9	158489	17110.6	17077.2	24174.5	44.9441	93.5056
10	125893	20169.6	18589.2	27429.3	42.6651	95.1406
11	100000	23492.6	19611.1	30602.2	39.8544	96.8706
12	79432.8	26947	20532.4	33878	37.3058	102.231
13	63095.7	30725	20930.7	37176.8	34.2638	106.846
14	50118.7	34509.4	21088.3	40442.7	31.4286	114.091
15	39810.7	38377.1	20989.4	43741.9	28.6754	116.816
16	31622.8	41929.7	20729	46773.8	26.3066	125.351
17	25118.9	45365.3	20309.9	49704.1	24.1179	128.941
18	19952.6	48618.9	19738.5	52472.9	22.0964	131.561
19	15848.9	51678	19127.8	55104.3	20.3113	139.691
20	12589.3	54564.9	18472.6	57607	18.7032	150.197
21	10000	57298.8	17834.5	60010.2	17.289	158.517
22	7943.28	59913.5	17174.7	62326.5	15.9954	164.832
23	6309.57	62389.1	16497.6	64533.5	14.8118	171.417
24	5011.87	64697	15863.3	66613.4	13.7767	183.317
25	3981.07	66940.1	15246.8	68654.5	12.8313	185.422
26	3162.28	69023.2	14704.2	70572.1	12.0261	187.327
27	2511.89	70998.1	14214	72406.9	11.3211	189.152
28	1995.26	72932.5	13732.2	74214	10.6632	191.002
29	1584.89	74799.1	13324.6	75976.6	10.1007	192.732
30	1258.93	76583.6	13004.3	77679.8	9.63722	194.482
31	1000	78334.1	12764.8	79367.4	9.25518	196.567
32	794.328	80080.5	12464.1	81044.7	8.8468	198.748
33	630.957	81808.4	12312.5	82729.7	8.55903	200.773
34	501.187	83485.6	12238.3	84377.9	8.33972	202.568
35	398.107	85164.7	12227	86037.9	8.17005	204.368
36	316.228	86835.7	12271.806	87698.6	8.04389	206.388
37	251.189	88501.3	12382.2	89363.3	7.96456	208.418
38	199.526	90189.8	12557.6	91059.8	7.92662	210.473
39	158.489	91897.9	12799.8	92785	7.92927	212.513
40	125.893	93640.2	13123.3	94555.3	7.9778	214.583
41	100	95453	13515.8	96405.2	8.05929	216.658
42	79.4328	97298.8	14062	98309.7	8.22366	218.663
43	63.0957	99267.8	14583.1	100333	8.35734	220.873
44	50.1187	101300	15155.5	102428	8.50887	222.968
45	39.8107	103466	15798	104665	8.68131	232.878
46	31.6228	105715	16482.4	106992	8.86189	235.118
47	25.1189	108108	17219.8	109471	9.05025	237.403
48	19.9526	110607	17976	112058	9.2311	240.178
49	15.8489	113244	18788.8	114792	9.42039	242.818
50	12.5893	116002.969	19616.8	117650	9.59826	245.613
51	10	118915	20483	120666	9.77324	248.413
52	7.94328	121872	21492	123753	10.0012	251.448
53	6.30957	124997	22376.4	126984	10.1494	254.614
54	5.01187	128293	23297.1	130391	10.2924	257.674
55	3.98107	131756	24263.1	133972	10.4342	260.859
56	3.16228	135267	25242.4	137602.241	10.5705	264.019
57	2.51189	138944	26316.7	141414.438	10.7251	267.284
58	1.99526	142615	27409	145225	10.879	270.804
59	1.58489	146559	28619.3	149327	11.0494	274.104
60	1.25893	150540	29881.3	153477	11.2269	277.494
61	1	154724	31276.8	157854	11.4281	283.879
62	0.794328	159009	33018.6	162401	11.7309	287.824
63	0.630957	163487	34645.1	167117	11.9648	291.909
64	0.501187	168079	36452.8	171987	12.2367	296.484
65	0.398107	172939	38516.6	177176	12.5559	301.444
66	0.316228	177927	40813.4	182547.792	12.9192	306.685
67	0.251189	183021	43468.3	188112	13.3605	312.8
68	0.199526	188341	46536.9	194005	13.8791	319.5
69	0.158489	193838.229	50093.4	200206	14.4899	327.295
70	0.125893	199573	54219.8	206807	15.1992	336.46
71	0.1	205601	59057.9	213914	16.0265	347.15