File: data/plate_beam/Z_beam3_20241212.txt
Index	Frequency (Hz)	Z' (Ω)	-Z'' (Ω)	Z (Ω)	-Phase (°)	Time (s)
1	1000000	4881.44	8940.28	10186.1	61.3652	53.0448
2	794328.25	6198.89	10258.6	11986	58.857	63.39
3	630957.375	7711.74	11695.3	14008.9	56.5996	68.7951
4	501187	9552.56	13283.8	16361.8	54.2795	71.5051
5	398107	11596	15051.3	19000.2	52.388	80.0953
6	316228	14097.3	16838.4	21960.5	50.0636	82.2803
7	251189	16868.3	18736.1	25210.7	48.0029	88.9605
8	199526	19924.4	20752.2	28768.6	46.1658	91.1255
9	158489	23726.1	22670.7	32816	43.697	93.5056
10	125893	27851.1	24642	37187.5	41.5016	95.1406
11	100000	32305.1	26099.6	41530.8	38.935	96.8706
12	79432.8	37068.6	27432.1	46115.1	36.5028	102.231
13	63095.7	42259.9	28030.1	50710.8	33.5555	106.846
14	50118.7	47445.1	28294.2	55241.268	30.8101	114.091
15	39810.7	52751.9	28156.1	59795.8	28.0909	116.816
16	31622.8	57705.3	27824.1	64063.1	25.7422	125.351
17	25118.9	62459.7	27168.3	68112.7	23.5078	128.941
18	19952.6	66934.9	26303.6	71917.7	21.4535	131.561
19	15848.9	71122	25313.7	75492.5	19.5916	139.691
20	12589.3	75103.4	24298.8	78936.4	17.9284	150.197
21	10000	78722	23158.8	82057.8	16.3931	158.517
22	7943.28	82007.8	22307.7	84987.7	15.2174	164.832
23	6309.57	85201.4	21023	87756.7	13.8606	171.417
24	5011.87	88117.7	19901.4	90337.1	12.7267	183.317
25	3981.07	90842.2	18864.7	92780.3	11.7315	185.422
26	3162.28	93343.1	17906.6	95045.2	10.8594	187.327
27	2511.89	95665.9	17103.4	97182.7	10.1364	189.152
28	1995.26	97862.8	16380.1	99224.2	9.502	191.002
29	1584.89	100004	15850.6	101252	9.00647	192.732
30	1258.93	102076.878	15423.7	103236	8.59235	194.482
31	1000	104109.204	14985	105182	8.19062	196.567
32	794.328	106035	14730.8	107054	7.90913	198.748
33	630.957	108018	14551.4	108994	7.67224	200.773
34	501.187	109940.742	14497.6	110893	7.5121	202.568
35	398.107	111877	14562.5	112821	7.41623	204.368
36	316.228	113832	14712.4	114778	7.36449	206.388
37	251.189	115833	14967.7	116796	7.36284	208.418
38	199.526	117842	15286.6	118829	7.3912	210.473
39	158.489	119924	15722.5	120950	7.46908	212.513
40	125.893	122084	16245.9	123160.336	7.5799	214.583
41	100	124333	16838.2	125468	7.71254	216.658
42	79.4328	126659	17634.3	127881	7.92612	218.663
43	63.0957	129159	18372.6	130460	8.09585	220.873
44	50.1187	131757.913	19160	133144	8.27387	222.968
45	39.8107	134544.387	20022.5	136026	8.46446	232.878
46	31.6228	137427	20923	139011	8.6567	235.118
47	25.1189	140512.3	21871	142204	8.84718	237.403
48	19.9526	143726	22833.9	145529	9.02719	240.178
49	15.8489	147120	23833.6	149038	9.20206	242.818
50	12.5893	150657	24852.7	152693	9.36725	245.613
51	10	154399	25890	156554	9.51894	248.413
52	7.94328	158191	27100.1	160496	9.72111	251.448
53	6.30957	162169	28112.4	164588	9.83462	254.614
54	5.01187	166365	29139.1	168897	9.93469	257.674
55	3.98107	170763	30190.2	173412	10.026	260.859
56	3.16228	175140	31205.6	177898	10.1027	264.019
57	2.51189	179771	32330.9	182655	10.1954	267.284
58	1.99526	184315	33403.4	187318	10.2722	270.804
59	1.58489	189145	34583	192280.162	10.3614	274.104
60	1.25893	193941	35801	197218	10.4589	277.494
61	1	198870	37166.7	202314	10.5858	283.879
62	0.794328	203733.235	39132.7	207457	10.8728	287.824
63	0.630957	208734.901	40789.5	212683	11.057	291.909
64	0.501187	213716.861	42785.8	217958	11.3209	296.484
65	0.398107	218789	45295.5	223429	11.6966	301.444
66	0.316228	223853	48340.7	229014	12.1858	306.685
67	0.251189	228831	52243.4	234718.809	12.8605	312.8
68	0.199526	233977	57143.2	240853.651	13.7245	319.5
69	0.158489	239359	63176.8	247556	14.7855	327.295
70	0.125893	245141.765	70552.9	255093	16.0561	336.46
71	0.1	251522	79401.2	263758	17.52	347.15