File: data/plate_beam/Z_beam3_20241120.txt
Index	Frequency (Hz)	Z' (Ω)	-Z'' (Ω)	Z (Ω)	-Phase (°)	Time (s)
1	1000000	4835	8184.45	9505.91	59.4274	53.0448
2	794328.25	6144.21	9327.07	11168.9	56.6251	63.39
3	630957.375	7612.64	10505.8	12974	54.0725	68.7951
4	501187	9311.61	11783.4	15018.5	51.6831	71.5051
5	398107	11193.2	13063.2	17202.8	49.4083	80.0953
6	316228	13413.4	14547.1	19787.3	47.3219	82.2803
7	251189	15939.4	15984	22573.2	45.08	88.9605
8	199526	18714.6	17361.3	25527.5	42.8517	91.1255
9	158489	21959.7	18657.7	28815.6	40.3524	93.5056
10	125893	25193.9	19819.3	32055.2	38.1911	95.1406
11	100000	29079	20881.4	35799.7	35.6818	96.8706
12	79432.8	32605.9	21449.1	39028.3	33.338	102.231
13	63095.7	36542.9	21571.6	42434.814	30.5537	106.846
14	50118.7	40429	21482.3	45782	27.9843	114.091
15	39810.7	44364.8	21095.6	49124.9	25.4313	116.816
16	31622.8	47885.1	20611.3	52132.5	23.2886	125.351
17	25118.9	51263.995	20001	55027.6	21.3136	128.941
18	19952.6	54481.6	19266	57787.7	19.4748	131.561
19	15848.9	57412.4	18471.3	60310.6	17.8345	139.691
20	12589.3	60189.4	17621.3	62715.8	16.3182	150.197
21	10000	62801.8	16835.4	65019.2	15.0066	158.517
22	7943.28	65201.6	16001.6	67136.5	13.7889	164.832
23	6309.57	67378.5	15201.1	69072	12.7135	171.417
24	5011.87	69500.3	14467.3	70990.1	11.7588	183.317
25	3981.07	71415.1	13961.3	72767	11.0615	185.422
26	3162.28	73241.7	13359.6	74450.2	10.3374	187.327
27	2511.89	74975.6	12823.4	76064.3	9.70562	189.152
28	1995.26	76675.6	12363.7	77666	9.15996	191.002
29	1584.89	78292.9	12010	79208.7	8.7211	192.732
30	1258.93	79847.3	11728.6	80704.1	8.35627	194.482
31	1000	81411.6	11573.7	82230.1	8.09114	196.567
32	794.328	82944.1	11331	83714.5	7.77902	198.748
33	630.957	84466.1	11245	85211.4	7.58323	200.773
34	501.187	85974.6	11241.1	86706.4	7.44908	202.568
35	398.107	87483.3	11334.8	88214.6	7.38238	204.368
36	316.228	89003.9	11509.5	89744.9	7.36828	206.388
37	251.189	90569.4	11750.3	91328.4	7.39213	208.418
38	199.526	92157.1	12061.4	92943	7.4564	210.473
39	158.489	93818.4	12459.2	94642	7.56467	212.513
40	125.893	95523.8	12915.1	96392.9	7.69986	214.583
41	100	97341	13428.6	98262.9	7.8546	216.658
42	79.4328	99217.6	14084.2	100212	8.07928	218.663
43	63.0957	101232	14697.7	102293	8.26098	220.873
44	50.1187	103331	15339.3	104463	8.44383	222.968
45	39.8107	105575	16033.3	106785	8.63534	232.878
46	31.6228	107904	16743.7	109196	8.82035	235.118
47	25.1189	110394	17485.1	111770	9.0002	237.403
48	19.9526	112979	18224.4	114440	9.16333	240.178
49	15.8489	115702	18996.1	117251	9.32372	242.818
50	12.5893	118543	19763.7	120179	9.46542	245.613
51	10	121526	20539.7	123249.807	9.59315	248.413
52	7.94328	124544	21428.9	126374	9.76262	251.448
53	6.30957	127711	22177.1	129622	9.85124	254.614
54	5.01187	131025	22913.9	133014	9.91964	257.674
55	3.98107	134476	23671.5	136543.802	9.98335	260.859
56	3.16228	137929	24410.7	140072.845	10.0363	264.019
57	2.51189	141538	25193.4	143762	10.0928	267.284
58	1.99526	145059	25973.7	147366	10.1516	270.804
59	1.58489	148777	26826.1	151176.497	10.2212	274.104
60	1.25893	152438	27729.6	154939	10.3098	277.494
61	1	156175	28751.8	158799	10.4314	283.879
62	0.794328	159907	30104.8	162716	10.6619	287.824
63	0.630957	163612.342	31496.1	166616	10.8964	291.909
64	0.501187	167266	33217.9	170532	11.2324	296.484
65	0.398107	170988	35447.464	174624	11.7121	301.444
66	0.316228	174726	38186.9	178850	12.3283	306.685
67	0.251189	178453	41728.4	183267.063	13.1612	312.8
68	0.199526	182358	46126.2	188101.072	14.1949	319.5
69	0.158489	186591	51486.6	193564	15.4259	327.295
70	0.125893	191240	57947.4	199827	16.8573	336.46
71	0.1	196471.946	65578.8	207127	18.4581	347.15