File: data/plate_beam/Z_beam3_20241219.txt
Index	Frequency (Hz)	Z' (Ω)	-Z'' (Ω)	Z (Ω)	-Phase (°)	Time (s)
1	1000000	5285.93	9174.27	10588.1	60.0508	53.0448
2	794328.25	6730.32	10459.8	12438	57.2409	63.39
3	630957.375	8338.81	11928.3	14554.1	55.0436	68.7951
4	501187	10292	13457.8	16942.2	52.5925	71.5051
5	398107	12260.4	15131.9	19475.4	50.9845	80.0953
6	316228	14779.3	16923.9	22468.7	48.8699	82.2803
7	251189	17586.2	18835.2	25769	46.9642	88.9605
8	199526	20710.3	20735.2	29306.4	45.0344	91.1255
9	158489	24442.5	22606.1	33293.7	42.7648	93.5056
10	125893	28510.7	24343.1	37489.3	40.4914	95.1406
11	100000	33049.3	25811.3	41934.2	37.9897	96.8706
12	79432.8	37814.8	27041.1	46488.5	35.5683	102.231
13	63095.7	42925.2	27489	50972.7	32.6352	106.846
14	50118.7	48005.2	27638.7	55393.1	29.9309	114.091
15	39810.7	53300.7	27381.6	59922.6	27.1905	116.816
16	31622.8	58019.9	26997.9	63993.7	24.9536	125.351
17	25118.9	62621.3	26321.5	67928.3	22.7984	128.941
18	19952.6	66848.5	25553.2	71566	20.9196	131.561
19	15848.9	70998.5	24547.4	75122.3	19.0726	139.691
20	12589.3	74685.8	23447.8	78280.1	17.4298	150.197
21	10000	78233.5	22460.1	81393.7	16.0183	158.517
22	7943.28	81434.3	21691.7	84273.8	14.9156	164.832
23	6309.57	84489.7	20560.2	86955.4	13.6768	171.417
24	5011.87	87340.2	19486.4	89487.6	12.5772	183.317
25	3981.07	89967.9	18515.7	91853.4	11.6293	185.422
26	3162.28	92438.3	17656.2	94109.4	10.8135	187.327
27	2511.89	94797.8	16854.4	96284.4	10.0814	189.152
28	1995.26	97010.5	16224.3	98357.8	9.49446	191.002
29	1584.89	99154.3	15723.3	100393	9.01058	192.732
30	1258.93	101204	15394.9	102368	8.64938	194.482
31	1000	103165	14972.112	104246	8.25758	196.567
32	794.328	105245	14641	106258	7.91979	198.748
33	630.957	107228.144	14520.7	108207	7.71198	200.773
34	501.187	109111	14461.6	110065	7.55	202.568
35	398.107	111046	14493.6	111988	7.43615	204.368
36	316.228	112988.972	14652.3	113935	7.38884	206.388
37	251.189	114963	14888.4	115923	7.37906	208.418
38	199.526	116973	15203.7	117957	7.40555	210.473
39	158.489	119048	15607.9	120067	7.46919	212.513
40	125.893	121176	16120.4	122243	7.57775	214.583
41	100	123408	16707.2	124533	7.70996	216.658
42	79.4328	125715	17491.9	126927	7.92123	218.663
43	63.0957	128190	18224.9	129479	8.09155	220.873
44	50.1187	130760	19009.3	132135	8.27143	222.968
45	39.8107	133524	19870	134995	8.46417	232.878
46	31.6228	136381	20767.2	137954	8.6581	235.118
47	25.1189	139445	21709.4	141125	8.84898	237.403
48	19.9526	142635	22668.8	144425	9.03039	240.178
49	15.8489	146004.307	23665.6	147910	9.2069	242.818
50	12.5893	149517	24684.7	151541	9.37477	245.613
51	10	153240	25697.7	155379	9.51973	248.413
52	7.94328	156996	26911.4	159286	9.7268	251.448
53	6.30957	160972.074	27912.4	163374	9.83721	254.614
54	5.01187	165145.729	28915.9	167658	9.93144	257.674
55	3.98107	169509	29942.4	172133	10.0175	260.859
56	3.16228	173875	30945.6	176607	10.0916	264.019
57	2.51189	178444	32017.2	181294	10.172	267.284
58	1.99526	182979	33074.8	185945	10.246	270.804
59	1.58489	187760	34205	190850	10.3246	274.104
60	1.25893	192519	35388.8	195744	10.4158	277.494
61	1	197398	36689.6	200778	10.5292	283.879
62	0.794328	202243	38532.6	205881.364	10.787	287.824
63	0.630957	207186	40138.5	211038	10.9642	291.909
64	0.501187	212098	42048.7	216226	11.2136	296.484
65	0.398107	217093	44467.6	221600	11.5759	301.444
66	0.316228	222062	47392	227063	12.0472	306.685
67	0.251189	226963	51177.3	232662	12.707	312.8
68	0.199526	232035	55915.6	238677	13.5488	319.5
69	0.158489	237350	61781	245259	14.59	327.295
70	0.125893	243050	68907.6	252629	15.8287	336.46
71	0.1	249341	77473.8	261100	17.2607	347.15