File: data/plate_beam/Z_beam2_20241205.txt
Index	Frequency (Hz)	Z' (Ω)	-Z'' (Ω)	Z (Ω)	-Phase (°)	Time (s)
1	1000000	4579.96	7534.39	8817.2	58.7056	53.0448
2	794328.25	5767.92	8555.63	10318.3	56.0135	63.39
3	630957.375	7153.95	9662.1	12022.3	53.4832	68.7951
4	501187	8730.47	10800.5	13887.9	51.0501	71.5051
5	398107	10556	12048	16018.2	48.7764	80.0953
6	316228	12533.8	13344.9	18308	46.7953	82.2803
7	251189	14952.4	14583.1	20886.3	44.2836	88.9605
8	199526	17503.7	15812	23588.1	42.0931	91.1255
9	158489	20406.5	17024.1	26575.3	39.8365	93.5056
10	125893	23527.2	17866.6	29542.3	37.2131	95.1406
11	100000	26909.6	18635.4	32732.3	34.7034	96.8706
12	79432.8	30090.1	19145.5	35664.6	32.4674	102.231
13	63095.7	33544.7	19141.1	38621.6	29.7097	106.846
14	50118.7	36937.1	18962.5	41520.1	27.1748	114.091
15	39810.7	40266.6	18598.3	44354.2	24.7912	116.816
16	31622.8	43290.2	18176.8	46951.5	22.7767	125.351
17	25118.9	46175	17673.1	49441.6	20.944	128.941
18	19952.6	48880	17164.2	51806.1	19.3487	131.561
19	15848.9	51493.6	16608.9	54105.9	17.8767	139.691
20	12589.3	53953.5	16077.6	56298	16.5935	150.197
21	10000	56309.7	15521.8	58409.8	15.4109	158.517
22	7943.28	58622.9	15008.6	60513.6	14.3604	164.832
23	6309.57	60847.5	14385.6	62524.9	13.3017	171.417
24	5011.87	62875.5	13788.1	64369.6	12.3687	183.317
25	3981.07	64779	13251.4	66120.5	11.5611	185.422
26	3162.28	66671.2	12732.5	67876.1	10.8118	187.327
27	2511.89	68406.7	12169.7	69480.8	10.0875	189.152
28	1995.26	69975.5	11737.5	70953.1	9.52196	191.002
29	1584.89	71584.7	11287.7	72469.1	8.96084	192.732
30	1258.93	73020.5	10993.1	73843.4	8.56149	194.482
31	1000	74435.3	10784.3	75212.5	8.24372	196.567
32	794.328	75882.2	10461.2	76599.9	7.84941	198.748
33	630.957	77204.9	10406.8	77903.2	7.67691	200.773
34	501.187	78586.6	10417.8	79274.1	7.55139	202.568
35	398.107	79967.1	10518.3	80655.8	7.49323	204.368
36	316.228	81370.8	10702.5	82071.6	7.49295	206.388
37	251.189	82827.7	10956.1	83549.2	7.53513	208.418
38	199.526	84317.2	11280.221	85068.4	7.61996	210.473
39	158.489	85867.4	11658.9	86655.3	7.73219	212.513
40	125.893	87504.5	12099.5	88337	7.87255	214.583
41	100	89202.3	12597.4	90087.5	8.0383	216.658
42	79.4328	90996.2	13200.4	91948.7	8.25404	218.663
43	63.0957	92915.3	13763.2	93929.1	8.42573	220.873
44	50.1187	94907.2	14341.3	95984.7	8.59288	222.968
45	39.8107	97034.5	14949.5	98179.3	8.75835	232.878
46	31.6228	99244.8	15561.5	100457	8.91135	235.118
47	25.1189	101585	16187.5	102867	9.0539	237.403
48	19.9526	104011	16795.9	105358	9.17304	240.178
49	15.8489	106549	17398.2	107960	9.27385	242.818
50	12.5893	109181	17990	110653	9.35669	245.613
51	10	111926	18572.6	113456	9.42162	248.413
52	7.94328	114684.361	19221.1	116284	9.51436	251.448
53	6.30957	117561	19740.2	119206.653	9.53188	254.614
54	5.01187	120531	20252.3	122220.846	9.53806	257.674
55	3.98107	123587	20759.7	125319	9.53527	260.859
56	3.16228	126611	21241.9	128380	9.52401	264.019
57	2.51189	129762.828	21756.5	131574	9.5179	267.284
58	1.99526	132813	22276.6	134669	9.52152	270.804
59	1.58489	135997	22829.9	137900	9.52941	274.104
60	1.25893	139108	23432.1	141068	9.56142	277.494
61	1	142252	24128.8	144284	9.62688	283.879
62	0.794328	145375	25084.9	147523	9.79014	287.824
63	0.630957	148418	26115.9	150698	9.9797	291.909
64	0.501187	151361	27441.5	153829	10.276	296.484
65	0.398107	154296	29239	157042.353	10.7302	301.444
66	0.316228	157174	31509.4	160301.164	11.3361	306.685
67	0.251189	159939	34565	163632	12.1948	312.8
68	0.199526	162823	38502.8	167313	13.3044	319.5
69	0.158489	165893	43419.8	171481.12	14.6672	327.295
70	0.125893	169237	49484.6	176324	16.2988	336.46
71	0.1	173043	56798	182126	18.1714	347.15