File: data/plate_beam/Z_beam7_20241219.txt
Index	Frequency (Hz)	Z' (Ω)	-Z'' (Ω)	Z (Ω)	-Phase (°)	Time (s)
1	1000000	3995.2	9093.67	9932.6	66.2823	53.0448
2	794328.25	5347.93	10516.7	11798.4	63.0458	63.39
3	630957.375	6930.57	12041.1	13893.2	60.0764	68.7951
4	501187	8758.83	13766.6	16316.7	57.5339	71.5051
5	398107	10829.8	15614.4	19002.5	55.2556	80.0953
6	316228	13294.3	17701.1	22137.5	53.0919	82.2803
7	251189	15956.7	19930.9	25531.5	51.3192	88.9605
8	199526	19139.6	22251.7	29350.7	49.2998	91.1255
9	158489	23072.6	24542.4	33684.9	46.7681	93.5056
10	125893	27503.7	27131.5	38633.9	44.6097	95.1406
11	100000	32163.7	29233.6	43463.9	42.2677	96.8706
12	79432.8	37369.2	31286.9	48737.3	39.9373	102.231
13	63095.7	43055.1	32599	54004.1	37.1311	106.846
14	50118.7	49057.3	33691	59512.2	34.48	114.091
15	39810.7	55326.2	34388.6	65142.6	31.8634	116.816
16	31622.8	61275.1	34845.2	70489.9	29.6255	125.351
17	25118.9	67307.9	35025.4	75875.7	27.4914	128.941
18	19952.6	73211.7	34918.4	81112.6	25.4989	131.561
19	15848.9	78882.8	34577.6	86128.4	23.6698	139.691
20	12589.3	84477.7	34067.2	91088.2	21.9627	150.197
21	10000	89915.2	33364.5	95905.8	20.3582	158.517
22	7943.28	95072.3	32701.7	100539	18.9815	164.832
23	6309.57	100107	31606.4	104978.216	17.5222	171.417
24	5011.87	104862	30504.2	109208	16.2197	183.317
25	3981.07	109380	29366.7	113253.949	15.0285	185.422
26	3162.28	113683	28264.8	117144	13.9623	187.327
27	2511.89	117732	27210.4	120835	13.0138	189.152
28	1995.26	121539	26234.6	124338	12.1806	191.002
29	1584.89	125104	25199.6	127617	11.3886	192.732
30	1258.93	128580	24296.8	130855	10.7006	194.482
31	1000	131943	23714	134057	10.1889	196.567
32	794.328	135169	23253.2	137155	9.76106	198.748
33	630.957	138320	22737.6	140177	9.33501	200.773
34	501.187	141248	22377.5	143009	9.00239	202.568
35	398.107	144277	22196	145975	8.74598	204.368
36	316.228	147210	22165.6	148870	8.56276	206.388
37	251.189	150152	22273.5	151795	8.43771	208.418
38	199.526	153171	22509.6	154816	8.36019	210.473
39	158.489	156215	22890.5	157883	8.33636	212.513
40	125.893	159282	23385.2	160989.486	8.35228	214.583
41	100	162493	24005.2	164256	8.4036	216.658
42	79.4328	165778	24947.7	167644	8.55818	218.663
43	63.0957	169248	25796.7	171202.21	8.66631	220.873
44	50.1187	172840	26761.2	174899	8.80135	222.968
45	39.8107	176645	27854.5	178827	8.961	232.878
46	31.6228	180582	29002.7	182896	9.12416	235.118
47	25.1189	184762	30279.6	187227	9.30715	237.403
48	19.9526	189117	31604.9	191739	9.4875	240.178
49	15.8489	193712.143	33033	196508	9.67736	242.818
50	12.5893	198530	34520	201509	9.86386	245.613
51	10	203603	36100.5	206779	10.0545	248.413
52	7.94328	208780	38032.6	212216	10.3241	251.448
53	6.30957	214271	39664.1	217912	10.4874	254.614
54	5.01187	220093	41382.2	223950	10.6485	257.674
55	3.98107	226244	43171.8	230326	10.8033	260.859
56	3.16228	232502	45040.1	236824	10.9635	264.019
57	2.51189	239123	47053.1	243709	11.1321	267.284
58	1.99526	245823	49052.8	250669.031	11.2849	270.804
59	1.58489	253027	51172.5	258150	11.4333	274.104
60	1.25893	260364	53297.2	265763	11.5688	277.494
61	1	268087	55508.7	273773	11.6981	283.879
62	0.794328	275824	58566.6	281973	11.9878	287.824
63	0.630957	283987.971	60724.6	290407.715	12.0697	291.909
64	0.501187	292682	61454.8	299064	11.8582	296.484
65	0.398107	301018	64329.6	307815	12.063	301.444
66	0.316228	309326	67446.3	316593	12.3004	306.685
67	0.251189	317496	71198.4	325380.835	12.6395	312.8
68	0.199526	325766	75759.2	334459	13.0918	319.5
69	0.158489	334138	81315.2	343890	13.6775	327.295
70	0.125893	342826	88123.6	353971	14.4158	336.46
71	0.1	351975	96368.4	364929.482	15.3119	347.15