File: data/plate_beam/Z_beam7_20241205.txt
Index	Frequency (Hz)	Z' (Ω)	-Z'' (Ω)	Z (Ω)	-Phase (°)	Time (s)
1	1000000	3967.45	8741.58	9599.78	65.5886	53.0448
2	794328.25	5252.33	10049.4	11339.2	62.4062	63.39
3	630957.375	6806.83	11569.6	13423.4	59.53	68.7951
4	501187	8619.25	13160.5	15731.8	56.7779	71.5051
5	398107	10563.3	14843.2	18218.3	54.5621	80.0953
6	316228	12931.4	16811.2	21209.3	52.4321	82.2803
7	251189	15773.7	18789.5	24532.7	49.9866	88.9605
8	199526	18694.1	20869.2	28017.8	48.1468	91.1255
9	158489	22458.9	22890.5	32068.3	45.5453	93.5056
10	125893	26330.9	24952.3	36275.8	43.4601	95.1406
11	100000	30671.4	26869.3	40776.1	41.2195	96.8706
12	79432.8	35654.5	28505.7	45648.8	38.6423	102.231
13	63095.7	40882.5	29492.6	50410.2	35.8066	106.846
14	50118.7	46262.2	30232.7	55264.9	33.1649	114.091
15	39810.7	51819	30629.9	60194.7	30.5871	116.816
16	31622.8	57137.5	30813	64916.4	28.337	125.351
17	25118.9	62396.8	30760.1	69566.8	26.2422	128.941
18	19952.6	67526.6	30466.2	74081.2	24.2836	131.561
19	15848.9	72457.2	29977.1	78413.5	22.4759	139.691
20	12589.3	77205.5	29399.3	82613.6	20.8464	150.197
21	10000	81829.5	28656.3	86702	19.3	158.517
22	7943.28	86176.8	28077.5	90635.4	18.0463	164.832
23	6309.57	90467	27075.4	94431.7	16.6617	171.417
24	5011.87	94447.5	26020.3	97966.3	15.4029	183.317
25	3981.07	98292.8	24966.5	101414	14.2518	185.422
26	3162.28	101852	23960.7	104632	13.2382	187.327
27	2511.89	105207	22995.9	107691.326	12.3296	189.152
28	1995.26	108427	22137.3	110664	11.5393	191.002
29	1584.89	111424	21338.8	113449	10.8415	192.732
30	1258.93	114303	20646.5	116152	10.2389	194.482
31	1000	117176	20163.3	118898	9.76366	196.567
32	794.328	119732	19568.7	121320	9.28224	198.748
33	630.957	122326	19286	123837	8.95953	200.773
34	501.187	124863	19020.1	126304	8.66114	202.568
35	398.107	127384	18960.7	128787	8.46617	204.368
36	316.228	129919	19016.5	131304	8.32732	206.388
37	251.189	132465	19211.5	133851	8.25212	208.418
38	199.526	135056	19526.8	136460	8.22699	210.473
39	158.489	137689	19952.7	139127	8.24543	212.513
40	125.893	140409	20490.9	141896	8.303	214.583
41	100	143231	21138	144783	8.39509	216.658
42	79.4328	146126	22004.1	147773	8.56347	218.663
43	63.0957	149220	22830.4	150956	8.69871	220.873
44	50.1187	152419	23735.6	154256.463	8.85133	222.968
45	39.8107	155818	24732.3	157768.69	9.01906	232.878
46	31.6228	159335	25795.1	161409.682	9.19594	235.118
47	25.1189	163078	26949.4	165289	9.38363	237.403
48	19.9526	166980	28139.7	169334	9.56571	240.178
49	15.8489	171079	29411.4	173589	9.75476	242.818
50	12.5893	175376	30742.9	178049.977	9.94278	245.613
51	10	179911	32134.7	182758	10.1271	248.413
52	7.94328	184531	33791.5	187599	10.3771	251.448
53	6.30957	189412	35237.4	192662	10.5386	254.614
54	5.01187	194584	36778.9	198030	10.7034	257.674
55	3.98107	200047	38365.2	203693	10.8564	260.859
56	3.16228	205596	40021.8	209455	11.0156	264.019
57	2.51189	211470	41753.5	215553	11.1691	267.284
58	1.99526	217403	43552.3	221722	11.3281	270.804
59	1.58489	223775.922	45450.2	228345	11.4809	274.104
60	1.25893	230259	47359.6	235079	11.6225	277.494
61	1	237061.432	49335.7	242141	11.7562	283.879
62	0.794328	243921	51960.1	249394	12.0254	287.824
63	0.630957	251034	54003.9	256777	12.1408	291.909
64	0.501187	258187	56238.3	264241	12.2882	296.484
65	0.398107	265530	58808.4	271964	12.488	301.444
66	0.316228	272795	61795.5	279707	12.7636	306.685
67	0.251189	279967	65491.8	287525	13.1663	312.8
68	0.199526	287489	69461	295761	13.5831	319.5
69	0.158489	294846	75185.5	304281	14.3055	327.295
70	0.125893	302653	82125.3	313597	15.1817	336.46
71	0.1	311000	90453.1	323887.3	16.2169	347.15