File: data/plate_beam/Z_beam2_20241129.txt
Index	Frequency (Hz)	Z' (Ω)	-Z'' (Ω)	Z (Ω)	-Phase (°)	Time (s)
1	1000000	5249.57	7769.15	9376.44	55.9533	53.0448
2	794328.25	6446.82	8749.84	10868.4	53.6175	63.39
3	630957.375	7851.49	9837.99	12587	51.4074	68.7951
4	501187	9477.35	10961.9	14490.8	49.1543	71.5051
5	398107	11379.8	12078.7	16595.1	46.7065	80.0953
6	316228	13541.6	13253.4	18948	44.3837	82.2803
7	251189	15894.1	14366	21424.4	42.1091	88.9605
8	199526	18593.8	15447.7	24173.6	39.7198	91.1255
9	158489	21465.5	16260.9	26929.3	37.1452	93.5056
10	125893	24576.8	17035.2	29903.5	34.7274	95.1406
11	100000	27531.9	17488.3	32616.7	32.4238	96.8706
12	79432.8	30618.2	17617.2	35324.8	29.9154	102.231
13	63095.7	33783.7	17357.7	37981.9	27.1936	106.846
14	50118.7	36787.5	16952.5	40505.6	24.7413	114.091
15	39810.7	39699.359	16403.5	42954.8	22.4501	116.816
16	31622.8	42258.7	15883	45144.9	20.5988	125.351
17	25118.9	44683.3	15327.7	47239.1	18.9334	128.941
18	19952.6	46958.3	14786.1	49231.2	17.4781	131.561
19	15848.9	49108	14297.5	51147	16.2326	139.691
20	12589.3	51172.1	13865.8	53017.4	15.161	150.197
21	10000	53205.6	13416.4	54871.1	14.1527	158.517
22	7943.28	55116.7	12996.7	56628.3	13.2681	164.832
23	6309.57	57029.3	12532.6	58390.1	12.3941	171.417
24	5011.87	58808.5	12106.6	60041.7	11.6327	183.317
25	3981.07	60478.7	11651.1	61590.8	10.9043	185.422
26	3162.28	62081.8	11180.5	63080.5	10.2091	187.327
27	2511.89	63669.8	10801.4	64579.5	9.62837	189.152
28	1995.26	65090	10428.6	65920.1	9.10242	191.002
29	1584.89	66400.8	10178.2	67176.4	8.71469	192.732
30	1258.93	67867.5	9962.83	68594.8	8.35128	194.482
31	1000	69228.1	9875.21	69928.9	8.11833	196.567
32	794.328	70375.4	9764.53	71049.6	7.89931	198.748
33	630.957	71677.5	9705.67	72331.6	7.71138	200.773
34	501.187	73010.8	9616.72	73641.4	7.5036	202.568
35	398.107	74289.9	9734.68	74925	7.4653	204.368
36	316.228	75596.1	9929.54	76245.4	7.48296	206.388
37	251.189	76946.7	10179.2	77617.1	7.53587	208.418
38	199.526	78352.8	10493.1	79052.3	7.62776	210.473
39	158.489	79797.7	10867.2	80534.2	7.75511	212.513
40	125.893	81318.1	11289	82097.9	7.90359	214.583
41	100	82928.6	11746.2	83756.3	8.06191	216.658
42	79.4328	84601.9	12322.3	85494.5	8.28689	218.663
43	63.0957	86398.9	12844.4	87348.5	8.45587	220.873
44	50.1187	88266	13383.7	89274.9	8.62206	222.968
45	39.8107	90256.6	13946.9	91327.8	8.78415	232.878
46	31.6228	92321.9	14511.8	93455.5	8.93304	235.118
47	25.1189	94509.5	15078.5	95704.7	9.06483	237.403
48	19.9526	96774.7	15634	98029.4	9.17686	240.178
49	15.8489	99146.1	16186.4	100458.653	9.27218	242.818
50	12.5893	101597	16725.6	102964	9.34864	245.613
51	10	104155.581	17243.2	105573	9.40019	248.413
52	7.94328	106726	17834.8	108205.997	9.48692	251.448
53	6.30957	109391	18286.8	110909	9.4903	254.614
54	5.01187	112145	18734.6	113699	9.48408	257.674
55	3.98107	114980	19168.1	116567	9.46466	260.859
56	3.16228	117799	19575.4	119414.466	9.43499	264.019
57	2.51189	120687	19993.1	122332	9.40624	267.284
58	1.99526	123494	20418.9	125171	9.38849	270.804
59	1.58489	126406	20879.1	128119.01	9.37913	274.104
60	1.25893	129247	21388.4	131005	9.39645	277.494
61	1	132097	21978	133913	9.4462	283.879
62	0.794328	134920	22773.2	136828	9.58069	287.824
63	0.630957	137631	23701.5	139657.354	9.77108	291.909
64	0.501187	140240	24933.6	142440	10.0814	296.484
65	0.398107	142828	26611.4	145286	10.5542	301.444
66	0.316228	145362.711	28797.2	148188	11.2055	306.685
67	0.251189	147808	31727.8	151175	12.11502	312.8
68	0.199526	150382	35478.9	154510	13.2748	319.5
69	0.158489	153153	40174.6	158335	14.6985	327.295
70	0.125893	156232	45963	162853	16.3937	336.46
71	0.1	159766	52872.1	168287	18.3112	347.15