File: data/plate_beam/Z_beam6_20241219.txt
Index	Frequency (Hz)	Z' (Ω)	-Z'' (Ω)	Z (Ω)	-Phase (°)	Time (s)
1	1000000	2565.48	5951.89	6481.25	66.6822	53.0448
2	794328.25	3480.21	6871.31	7702.39	63.1385	63.39
3	630957.375	4592.31	7827.42	9075.12	59.6	68.7951
4	501187	5862.17	8858.82	10622.8	56.5061	71.5051
5	398107	7362.35	9925.7	12358.1	53.434	80.0953
6	316228	8956.4	10944	14141.7	50.7036	82.2803
7	251189	10802	11922.5	16088.2	47.8227	88.9605
8	199526	12933	12999.5	18337.1	45.1468	91.1255
9	158489	15206.2	14048.3	20702.2	42.7335	93.5056
10	125893	17776.3	14825	23146.9	39.8273	95.1406
11	100000	20364.6	15552.813	25624.3	37.3697	96.8706
12	79432.8	23260.1	16098.9	28288	34.6881	102.231
13	63095.7	26247.3	16164.7	30825.6	31.6274	106.846
14	50118.7	29206.6	15999.8	33301.9	28.7146	114.091
15	39810.7	32148.8	15572.3	35721.8	25.8447	116.816
16	31622.8	34794.6	15021.1	37898.5	23.3502	125.351
17	25118.9	37272.8	14311.4	39925.9	21.005	128.941
18	19952.6	39522.4	13496.5	41763.3	18.8546	131.561
19	15848.9	41531.8	12619.1	43406.6	16.901	139.691
20	12589.3	43330.8	11814.7	44912.7	15.2517	150.197
21	10000	44929.9	10998.4	46256.5	13.7549	158.517
22	7943.28	46350.7	10262.6	47473.2	12.4846	164.832
23	6309.57	47598.4	9605.96	48558	11.4098	171.417
24	5011.87	48769.7	9100	49611.4	10.5693	183.317
25	3981.07	49828.7	8701.31	50582.8	9.90536	185.422
26	3162.28	50885.7	8347.37	51565.8	9.31593	187.327
27	2511.89	51915.2	8179.37	52555.6	8.95349	189.152
28	1995.26	52826	8076.04	53439.8	8.69207	191.002
29	1584.89	53928.7	8083.54	54531.1	8.52478	192.732
30	1258.93	54975.6	8146.04	55575.9	8.4285	194.482
31	1000	56098.037	8135.27	56684.9	8.25144	196.567
32	794.328	57230.8	8338.27	57835.1	8.28941	198.748
33	630.957	58415	8453.7	59023.6	8.23456	200.773
34	501.187	59642.9	8585.27	60257.6	8.19115	202.568
35	398.107	60882	8714.42	61502.5	8.14577	204.368
36	316.228	62133.5	8845.69	62760	8.10251	206.388
37	251.189	63396.8	8999.06	64032.4	8.07905	208.418
38	199.526	64666.6	9169.76	65313.5	8.07077	210.473
39	158.489	65948.5	9376.15	66611.7	8.09172	212.513
40	125.893	67247.4	9619.63	67931.9	8.14084	214.583
41	100	68589.3	9912.39	69301.8	8.22334	216.658
42	79.4328	69952	10320.8	70709.3	8.39294	218.663
43	63.0957	71420.4	10668.7	72212.9	8.49599	220.873
44	50.1187	72919.8	11090.6	73758.3	8.64805	222.968
45	39.8107	74514.4	11564.7	75406.5	8.82197	232.878
46	31.6228	76168.3	12067.9	77118.4	9.00299	235.118
47	25.1189	77932.7	12609	78946.1	9.19042	237.403
48	19.9526	79772.2	13161.9	80850.7	9.36905	240.178
49	15.8489	81724.7	13749.5	82873.2	9.55009	242.818
50	12.5893	83770.3	14353.9	84991.1	9.72309	245.613
51	10	85926.9	14968.4	87220.9	9.88175	248.413
52	7.94328	88145.8	15653.8	89524.9	10.0702	251.448
53	6.30957	90472.7	16260.7	91922.4	10.189	254.614
54	5.01187	92937.7	16874.114	94457.2	10.2907	257.674
55	3.98107	95520	17481.9	97106.6	10.3714	260.859
56	3.16228	98123	18074.1	99773.7	10.4368	264.019
57	2.51189	100861	18691	102578	10.4987	267.284
58	1.99526	103582	19273.5	105360	10.5405	270.804
59	1.58489	106492.006	19872.2	108330	10.5702	274.104
60	1.25893	109403	20448.1	111298	10.5867	277.494
61	1	112438	21029.6	114388	10.5938	283.879
62	0.794328	115546	21652	117557	10.6135	287.824
63	0.630957	118656	22213	120717	10.6033	291.909
64	0.501187	121783	22811.4	123901	10.6093	296.484
65	0.398107	124955	23486.1	127143.102	10.6449	301.444
66	0.316228	128056	24232.3	130329	10.7155	306.685
67	0.251189	131069	25203.3	133471	10.8845	312.8
68	0.199526	134014	26466.3	136603	11.1715	319.5
69	0.158489	136918.158	28151.449	139782.281	11.6185	327.295
70	0.125893	139814	30391.4	143078	12.2636	336.46
71	0.1	142761	33263.1	146584.943	13.1158	347.15