File: data/plate_beam/Z_beam4_20241212.txt
Index	Frequency (Hz)	Z' (Ω)	-Z'' (Ω)	Z (Ω)	-Phase (°)	Time (s)
1	1000000	2219.36	6616.08	6978.4	71.456	53.0448
2	794328.25	3250.23	7717.02	8373.55	67.1603	63.39
3	630957.375	4523.62	8915.84	9997.76	63.0982	68.7951
4	501187	5893.43	10122.3	11713	59.7912	71.5051
5	398107	7543.31	11438.8	13702.1	56.5972	80.0953
6	316228	9345.06	12824.8	15868.4	53.9202	82.2803
7	251189	11545.9	14328.9	18401.7	51.1389	88.9605
8	199526	14053.8	15797.6	21144.1	48.3432	91.1255
9	158489	16696.6	17106.5	23904.2	45.6947	93.5056
10	125893	19812.9	18557.3	27146.4	43.1258	95.1406
11	100000	22970.8	19613.8	30205.3	40.4926	96.8706
12	79432.8	26516.9	20592.7	33573.9	37.8324	102.231
13	63095.7	30329.9	21028.3	36906.5	34.7343	106.846
14	50118.7	34170.4	21235.6	40231.4	31.8594	114.091
15	39810.7	38051.9	21152.7	43536	29.0693	116.816
16	31622.8	41655.8	20879.9	46595.9	26.6222	125.351
17	25118.9	45139.2	20446.5	49554	24.3689	128.941
18	19952.6	48437.2	19867.2	52353.3	22.3017	131.561
19	15848.9	51536.5	19237.5	55009.9	20.4696	139.691
20	12589.3	54470.1	18547.1	57541.2	18.8037	150.197
21	10000	57244	17772.6	59939.5	17.2481	158.517
22	7943.28	59831.1	17066.6	62217.6	15.9206	164.832
23	6309.57	62250	16352.2	64361.9	14.7183	171.417
24	5011.87	64547.9	15701.2	66430.1	13.6716	183.317
25	3981.07	66806.5	15025.9	68475.5	12.6758	185.422
26	3162.28	68822.8	14355.3	70304	11.7821	187.327
27	2511.89	70724.6	13833.9	72064.9	11.0675	189.152
28	1995.26	72499.9	13309	73711.4	10.4021	191.002
29	1584.89	74339.1	12859.5	75443.1	9.81415	192.732
30	1258.93	75993.5	12537.7	77020.8	9.36847	194.482
31	1000	77623.7	12238.9	78582.7	8.96004	196.567
32	794.328	79303.4	11975.8	80202.6	8.58749	198.748
33	630.957	80936.6	11840.2	81798	8.32276	200.773
34	501.187	82526.5	11803.3	83366.3	8.13951	202.568
35	398.107	84128.4	11831.5	84956.3	8.00533	204.368
36	316.228	85742.1	11916	86566.1	7.91202	206.388
37	251.189	87359.2	12065.5	88188.5	7.86361	208.418
38	199.526	89004.1	12275.7	89846.7	7.85284	210.473
39	158.489	90682.3	12559.4	91547.9	7.88525	212.513
40	125.893	92400.5	12912.8	93298.4	7.95548	214.583
41	100	94183.2	13323.5	95120.9	8.05186	216.658
42	79.4328	96020.6	13892.2	97020.3	8.23241	218.663
43	63.0957	97968.6	14432.1	99025.9	8.38017	220.873
44	50.1187	99989.4	15016.3	101111	8.54077	222.968
45	39.8107	102138	15668.8	103333	8.72163	232.878
46	31.6228	104371	16364.1	105646	8.91073	235.118
47	25.1189	106749	17111.7	108112	9.10697	237.403
48	19.9526	109231	17875.2	110684	9.29384	240.178
49	15.8489	111855	18687.8	113405	9.48494	242.818
50	12.5893	114598.329	19534.2	116251	9.67353	245.613
51	10	117493	20407.3	119252	9.8534	248.413
52	7.94328	120445	21418.8	122335	10.0835	251.448
53	6.30957	123557	22316.2	125556	10.2381	254.614
54	5.01187	126840	23257.1	128955	10.3902	257.674
55	3.98107	130304	24242.5	132540.083	10.5391	260.859
56	3.16228	133783	25229	136141	10.6795	264.019
57	2.51189	137443	26334.7	139943	10.8467	267.284
58	1.99526	141124	27458	143771	11.0102	270.804
59	1.58489	145051.701	28709.4	147866	11.1956	274.104
60	1.25893	149029	30018.1	152022	11.3884	277.494
61	1	153199	31450.7	156394	11.6013	283.879
62	0.794328	157479	33275.7	160956	11.9313	287.824
63	0.630957	161940	34967.6	165673	12.1847	291.909
64	0.501187	166553	36863.3	170584	12.4801	296.484
65	0.398107	171412	39030.7	175799	12.8276	301.444
66	0.316228	176410	41437.5	181212	13.2187	306.685
67	0.251189	181512.161	44224.8	186822	13.6931	312.8
68	0.199526	186844	47452.5	192775	14.2501	319.5
69	0.158489	192359	51183.1	199052	14.9001	327.295
70	0.125893	198128	55533.6	205764	15.6577	336.46
71	0.1	204208	60629.3	213018	16.5361	347.15