File: data/plate_beam/Z_beam7_20241129.txt
Index	Frequency (Hz)	Z' (Ω)	-Z'' (Ω)	Z (Ω)	-Phase (°)	Time (s)
1	1000000	3971.96	8453.3	9339.95	64.8325	53.0448
2	794328.25	5285.25	9723.19	11066.8	61.4728	63.39
3	630957.375	6799.56	11108.6	13024.4	58.5294	68.7951
4	501187	8604.94	12543.2	15211	55.5488	71.5051
5	398107	10552.7	14074.3	17591	53.138	80.0953
6	316228	12735.9	15830.7	20317.8	51.183	82.2803
7	251189	15413.5	17653.2	23435.3	48.8749	88.9605
8	199526	18266.6	19532	26742.6	46.9174	91.1255
9	158489	21796.7	21245.6	30438	44.2665	93.5056
10	125893	25234.5	22931.1	34097.2	42.262	95.1406
11	100000	29536.2	24540.674	38401	39.7221	96.8706
12	79432.8	33890.5	25972.3	42698.1	37.4652	102.231
13	63095.7	38586.4	26711.5	46929.9	34.6929	106.846
14	50118.7	43415.4	27264.2	51266.3	32.1282	114.091
15	39810.7	48409.1	27501.4	55675.5	29.601	116.816
16	31622.8	53079.5	27590.8	59822.2	27.4655	125.351
17	25118.9	57736.3	27448.2	63928.8	25.4267	128.941
18	19952.6	62266.7	27180	67940.4	23.5818	131.561
19	15848.9	66646.2	26694.6	71793.6	21.8282	139.691
20	12589.3	70816	26103.4	75473.8	20.2343	150.197
21	10000	74898.5	25581.7	79146.8	18.8577	158.517
22	7943.28	78737.7	25057.7	82628.8	17.6533	164.832
23	6309.57	82506.5	24121.1	85960.2	16.2965	171.417
24	5011.87	86071.5	23215.9	89147.6	15.0951	183.317
25	3981.07	89419.3	22299.8	92158	14.003	185.422
26	3162.28	92593.9	21448.5	95045.6	13.042	187.327
27	2511.89	95662.6	20536.1	97842	12.1159	189.152
28	1995.26	98407.22	19827.3	100385	11.3916	191.002
29	1584.89	101160	19121.7	102951	10.704	192.732
30	1258.93	103684.147	18513.9	105324	10.1241	194.482
31	1000	106141	18103.5	107674	9.67925	196.567
32	794.328	108596	17642.9	110020	9.22788	198.748
33	630.957	110941	17344.1	112289	8.88547	200.773
34	501.187	113271	17184.8	114567	8.62678	202.568
35	398.107	115559	17150	116824	8.44158	204.368
36	316.228	117852	17221.3	119104	8.31358	206.388
37	251.189	120166.7	17402.7	121420	8.24037	208.418
38	199.526	122511	17701.4	123784	8.22167	210.473
39	158.489	124924	18102	126229	8.24499	212.513
40	125.893	127394	18590.5	128743	8.30253	214.583
41	100	129958	19213	131371	8.40968	216.658
42	79.4328	132595	20005.7	134096	8.57993	218.663
43	63.0957	135417	20766.6	137000	8.71855	220.873
44	50.1187	138333	21596.8	140009	8.87348	222.968
45	39.8107	141432	22506.7	143211	9.04196	232.878
46	31.6228	144642	23477.5	146535	9.21955	235.118
47	25.1189	148058	24516.4	150074	9.40211	237.403
48	19.9526	151598	25595.1	153743	9.58321	240.178
49	15.8489	155353	26739.9	157638	9.76623	242.818
50	12.5893	159259	27932.8	161690	9.94807	245.613
51	10	163404	29169.8	165987	10.1215	248.413
52	7.94328	167583	30660.3	170365	10.3679	251.448
53	6.30957	172053.252	31947.5	174994	10.5191	254.614
54	5.01187	176761	33278	179867	10.662	257.674
55	3.98107	181730	34686.1	185011	10.8059	260.859
56	3.16228	186751	36102.9	190208	10.9415	264.019
57	2.51189	192096	37601.5	195742	11.0752	267.284
58	1.99526	197484	39114.3	201320	11.2032	270.804
59	1.58489	203254	40699.8	207289	11.3232	274.104
60	1.25893	209075	42256.4	213302	11.4262	277.494
61	1	215169	43868.9	219595	11.5236	283.879
62	0.794328	221293.778	45971.3	226018	11.7356	287.824
63	0.630957	227601	47620.6	232529	11.8174	291.909
64	0.501187	233870	49432.4	239037	11.9348	296.484
65	0.398107	240251	51601	245730	12.1218	301.444
66	0.316228	246565	54126.6	252436	12.3813	306.685
67	0.251189	252759	57350.6	259183.496	12.7839	312.8
68	0.199526	259035.087	61349.7	266201	13.3244	319.5
69	0.158489	265509	66338.5	273671	14.0284	327.295
70	0.125893	272276	72459.6	281753	14.9024	336.46
71	0.1	279522	79832.9	290699	15.9396	347.15