File: data/plate_beam/Z_beam4_20241120.txt
Index	Frequency (Hz)	Z' (Ω)	-Z'' (Ω)	Z (Ω)	-Phase (°)	Time (s)
1	1000000	2191.64	5950.99	6341.73	69.7821	53.0448
2	794328.25	3163.95	6879.54	7572.22	65.302	63.39
3	630957.375	4274.21	7842.11	8931.27	61.4081	68.7951
4	501187	5608.05	8828.37	10459	57.5751	71.5051
5	398107	7030.08	9833.62	12088.1	54.4389	80.0953
6	316228	8779.2	10910.7	14004.2	51.1783	82.2803
7	251189	10612.9	11911.8	15953.8	48.3003	88.9605
8	199526	12728.8	12934.6	18147.3	45.4594	91.1255
9	158489	14963	13903.3	20425.3	42.8977	93.5056
10	125893	17459.1	14788.1	22880.3	40.265	95.1406
11	100000	20237.9	15475.8	25476.9	37.405	96.8706
12	79432.8	22786.8	15913.8	27793.7	34.9295	102.231
13	63095.7	25647.6	16032.9	30246.5	32.0105	106.846
14	50118.7	28469.6	15973.2	32644.5	29.2951	114.091
15	39810.7	31309.9	15717.8	35033.6	26.657	116.816
16	31622.8	33872.2	15412.3	37213.7	24.4661	125.351
17	25118.9	36339.8	14999.3	39313.6	22.4284	128.941
18	19952.6	38685.6	14523.7	41322.1	20.5775	131.561
19	15848.9	40858.7	14036.4	43202.4	18.9594	139.691
20	12589.3	42941.4	13542.5	45026.3	17.5038	150.197
21	10000	44905.2	13052.1	46763.6	16.207	158.517
22	7943.28	46806.3	12578.9	48467	15.0424	164.832
23	6309.57	48588.3	12087.9	50069.4	13.9706	171.417
24	5011.87	50301.3	11638.7	51630.2	13.0278	183.317
25	3981.07	51844.8	11193.9	53039.5	12.1839	185.422
26	3162.28	53394.3	10839	54483.4	11.4751	187.327
27	2511.89	54886.4	10453.5	55873	10.7832	189.152
28	1995.26	56289.2	10185.6	57203.4	10.2567	191.002
29	1584.89	57669.3	9948.02	58521.1	9.78726	192.732
30	1258.93	58987.9	9690.54	59778.6	9.32923	194.482
31	1000	60286.6	9491	61029.1	8.94673	196.567
32	794.328	61615.3	9440.13	62334.3	8.7106	198.748
33	630.957	62939.2	9404.17	63637.9	8.49808	200.773
34	501.187	64124.7	9307.91	64796.7	8.25899	202.568
35	398.107	65375.111	9327.12	66037.1	8.11964	204.368
36	316.228	66628.7	9371.18	67284.5	8.00601	206.388
37	251.189	67897.5	9487.23	68557.1	7.95436	208.418
38	199.526	69180	9646.56	69849.3	7.93822	210.473
39	158.489	70469.6	9866.61	71156.9	7.9703	212.513
40	125.893	71820.2	10172.76	72537.1	8.06186	214.583
41	100	73229.6	10497.7	73978.2	8.15793	216.658
42	79.4328	74691.4	10921.6	75485.6	8.319	218.663
43	63.0957	76231.1	11361.1	77073.1	8.47668	220.873
44	50.1187	77830.2	11835.4	78725	8.64652	222.968
45	39.8107	79538.1	12356.5	80492.2	8.83049	232.878
46	31.6228	81307.4	12904.7	82325.1	9.0185	235.118
47	25.1189	83194.4	13481.6	84279.7	9.20475	237.403
48	19.9526	85158.4	14072.7	86313.4	9.38351	240.178
49	15.8489	87227.1	14697.2	88456.6	9.56412	242.818
50	12.5893	89387.1	15345.2	90694.7	9.74109	245.613
51	10	91659.4	16004.8	93046.2	9.90467	248.413
52	7.94328	93984.1	16753.8	95465.7	10.1075	251.448
53	6.30957	96416.9	17437.4	97981.1	10.2514	254.614
54	5.01187	98986.4	18147.3	100636	10.3887	257.674
55	3.98107	101673	18895.6	103414	10.5281	260.859
56	3.16228	104396	19648.9	106229.441	10.6592	264.019
57	2.51189	107248	20504.4	109191	10.8236	267.284
58	1.99526	110089	21354.5	112141	10.9776	270.804
59	1.58489	113148	22307.5	115326	11.153	274.104
60	1.25893	116229	23312.2	118543	11.3414	277.494
61	1	119462	24429.6	121934	11.5575	283.879
62	0.794328	122833	25694.7	125491	11.815	287.824
63	0.630957	126269	27043.1	129133	12.0884	291.909
64	0.501187	129809	28554.3	132912.59	12.4059	296.484
65	0.398107	133544	30303.3	136939	12.7849	301.444
66	0.316228	137379	32250.6	141113	13.2114	306.685
67	0.251189	141286.313	34531.6	145445	13.7343	312.8
68	0.199526	145383	37179.3	150062	14.345	319.5
69	0.158489	149620	40267.5	154944	15.0632	327.295
70	0.125893	154058	43880.4	160185	15.8986	336.46
71	0.1	158746	48131.3	165882	16.8672	347.15