File: data/plate_beam/Z_beam1_20241219.txt
Index	Frequency (Hz)	Z' (Ω)	-Z'' (Ω)	Z (Ω)	-Phase (°)	Time (s)
1	1000000	3099.97	7785.27	8379.75	68.2883	53.0448
2	794328.25	4246.71	9078.11	10022.3	64.93	63.39
3	630957.375	5523.79	10459.7	11828.7	62.1614	68.7951
4	501187	7092.96	12010.4	13948.4	59.4352	71.5051
5	398107	8796.65	13686.4	16269.6	57.27	80.0953
6	316228	10773.588	15557.3	18923.6	55.2971	82.2803
7	251189	13241.4	17723.2	22123.5	53.2359	88.9605
8	199526	15868.7	19829.4	25397.2	51.331	91.1255
9	158489	18974.9	22190.4	29196.9	49.4664	93.5056
10	125893	22505.6	24620.5	33356.8	47.5695	95.1406
11	100000	26560.4	27185.8	38006.9	45.6667	96.8706
12	79432.8	31055.6	29690.6	42964.9	43.7127	102.231
13	63095.7	36207.5	31736.1	48147.4	41.2348	106.846
14	50118.7	41746.9	33699.1	53651.1	38.9113	114.091
15	39810.7	47768.3	35427.1	59471.8	36.5623	116.816
16	31622.8	53879.9	36997	65359.2	34.4757	125.351
17	25118.9	60250.4	38348.8	71419.5	32.4764	128.941
18	19952.6	66830.7	39331.8	77545.7	30.478	131.561
19	15848.9	73489.7	40051.2	83694.8	28.59	139.691
20	12589.3	80240.8	40455.3	89862.2	26.756	150.197
21	10000	87005.4	40504.4	95971.6	24.9638	158.517
22	7943.28	93686.4	40310.5	101990.58	23.2808	164.832
23	6309.57	100307.89	39496.8	107804	21.4923	171.417
24	5011.87	106601	38550.5	113357.353	19.8817	183.317
25	3981.07	112704	37401.7	118747.875	18.3588	185.422
26	3162.28	118436	36059.5	123804	16.9336	187.327
27	2511.89	123877	34658	128633	15.6305	189.152
28	1995.26	128875	33175.7	133077	14.4359	191.002
29	1584.89	133654	32022.5	137437.009	13.4736	192.732
30	1258.93	138152.799	30554.4	141491	12.471	194.482
31	1000	142217	29337.3	145212	11.6558	196.567
32	794.328	146359	28356.1	149081	10.9648	198.748
33	630.957	150166	27591.8	152679.845	10.4115	200.773
34	501.187	153727	26758.4	156039	9.87419	202.568
35	398.107	157225	26229.3	159398	9.47122	204.368
36	316.228	160619	25889	162691.884	9.15633	206.388
37	251.189	164004	25752	166014	8.92374	208.418
38	199.526	167355	25791	169330.598	8.76089	210.473
39	158.489	170716	26048.1	172692	8.67537	212.513
40	125.893	174136	26494.1	176140	8.65097	214.583
41	100	177646	27147.6	179708	8.68863	216.658
42	79.4328	181245	28174.4	183422	8.83587	218.663
43	63.0957	185066	29178.141	187352	8.9597	220.873
44	50.1187	189005	30330.9	191424	9.11689	222.968
45	39.8107	193211	31683.2	195792	9.31262	232.878
46	31.6228	197592	33192.9	200360	9.53593	235.118
47	25.1189	202272	34871	205256	9.78144	237.403
48	19.9526	207221	36653	210438	10.0306	240.178
49	15.8489	212510	38592	215985	10.2928	242.818
50	12.5893	218082	40670.4	221841	10.5638	245.613
51	10	224077	42862.7	228139	10.8291	248.413
52	7.94328	230205	45469.7	234653	11.1731	251.448
53	6.30957	236864	47722.2	241624	11.3912	254.614
54	5.01187	244002	50096.5	249092	11.6023	257.674
55	3.98107	251642	52557.1	257072.062	11.797	260.859
56	3.16228	259498	54887.5	265240	11.9428	264.019
57	2.51189	267861	57363.6	273934	12.0876	267.284
58	1.99526	276368	59682.4	282739	12.186	270.804
59	1.58489	285519.579	61835.3	292139	12.2199	274.104
60	1.25893	294824	63993	301689	12.2464	277.494
61	1	304586	66027.1	311661	12.2311	283.879
62	0.794328	315216	66360.6	322125	11.8886	287.824
63	0.630957	325215	68371.5	332324	11.8726	291.909
64	0.501187	335235	70231.2	342513	11.8322	296.484
65	0.398107	345432.92	72133.9	352884	11.7951	301.444
66	0.316228	355476	74083.4	363114	11.7723	306.685
67	0.251189	365231	76419.7	373141	11.8179	312.8
68	0.199526	374886	79386.1	383199	11.9564	319.5
69	0.158489	384303	83230.4	393213	12.2201	327.295
70	0.125893	393754	88247.7	403522	12.6323	336.46
71	0.1	403235	94714.9	414210	13.2184	347.15