File: data/plate_beam/Z_beam6_20241205.txt
Index	Frequency (Hz)	Z' (Ω)	-Z'' (Ω)	Z (Ω)	-Phase (°)	Time (s)
1	1000000	2292.27	5609.33	6059.63	67.7724	53.0448
2	794328.25	3219.58	6472.24	7228.8	63.5522	63.39
3	630957.375	4277.23	7326.71	8483.83	59.7242	68.7951
4	501187	5483.24	8247.67	9904.04	56.3831	71.5051
5	398107	6827.63	9139.18	11407.9	53.2376	80.0953
6	316228	8357.43	10104.4	13112.8	50.4054	82.2803
7	251189	10140	11029.6	14982.4	47.4065	88.9605
8	199526	12063.3	11887.7	16936.4	44.5799	91.1255
9	158489	14213.3	12769.5	19107	41.937	93.5056
10	125893	16620.3	13424.6	21364.8	38.9287	95.1406
11	100000	19069.2	14009.2	23662.1	36.3029	96.8706
12	79432.8	21507.1	14346.1	25852.8	33.705	102.231
13	63095.7	24160.4	14291.2	28070.6	30.6049	106.846
14	50118.7	26739.4	14048.9	30205.5	27.7175	114.091
15	39810.7	29285.1	13606.6	32291.8	24.9208	116.816
16	31622.8	31564.3	13056	34158	22.4715	125.351
17	25118.9	33676.9	12381.5	35880.8	20.1861	128.941
18	19952.6	35590.9	11644.3	37447.3	18.1165	131.561
19	15848.9	37309.8	10857	38857.4	16.2247	139.691
20	12589.3	38826.7	10101.8	40119.3	14.5837	150.197
21	10000	40195.1	9414.24	41282.9	13.1818	158.517
22	7943.28	41388.5	8750.47	42303.4	11.9378	164.832
23	6309.57	42477.5	8188.36	43259.5	10.911	171.417
24	5011.87	43442.2	7724.41	44123.6	10.0823	183.317
25	3981.07	44367.4	7312.83	44966	9.35959	185.422
26	3162.28	45244.7	7025.39	45786.9	8.82614	187.327
27	2511.89	46046.9	6850.8	46553.7	8.46232	189.152
28	1995.26	46844.9	6695.99	47321	8.13473	191.002
29	1584.89	47685.7	6702.41	48154.4	8.00072	192.732
30	1258.93	48562.5	6736.36	49027.5	7.89741	194.482
31	1000	49503.5	6832.13	49972.8	7.85792	196.567
32	794.328	50425	6871.95	50891.1	7.7605	198.748
33	630.957	51283.6	7102.57	51773.1	7.88507	200.773
34	501.187	52344	7241.96	52842.6	7.87705	202.568
35	398.107	53370.7	7429.96	53885.4	7.92544	204.368
36	316.228	54425.9	7609.19	54955.3	7.95883	206.388
37	251.189	55508.3	7803.3	56054.1	8.00215	208.418
38	199.526	56623.7	8024.42	57189.4	8.06596	210.473
39	158.489	57747.3	8265.44	58335.9	8.14548	212.513
40	125.893	58910.1	8541.24	59526.1	8.24969	214.583
41	100	60111.1	8855.35	60759.9	8.38032	216.658
42	79.4328	61342.5	9253.27	62036.4	8.57817	218.663
43	63.0957	62675.1	9630.49	63410.7	8.7356	220.873
44	50.1187	64052.3	10011.2	64830	8.88327	222.968
45	39.8107	65505.1	10460.9	66335.1	9.07328	232.878
46	31.6228	67014.1	10934.1	67900.2	9.26678	235.118
47	25.1189	68624.5	11435.2	69570.7	9.46054	237.403
48	19.9526	70301.7	11945	71309.3	9.64303	240.178
49	15.8489	72081.3	12479	73153.5	9.82189	242.818
50	12.5893	73940	13023	75078.1	9.98898	245.613
51	10	75906.6	13574.8	77110.9	10.1393	248.413
52	7.94328	77923.6	14160.8	79199.9	10.2997	251.448
53	6.30957	80032.1	14708.2	81372.4	10.4135	254.614
54	5.01187	82252.4	15259.8	83655.9	10.5102	257.674
55	3.98107	84582.7	15820.3	86049.5	10.5942	260.859
56	3.16228	86930.5	16357.1	88456	10.6563	264.019
57	2.51189	89397.5	16917	90984.1	10.7156	267.284
58	1.99526	91843.7	17459.938	93488.5	10.7638	270.804
59	1.58489	94460	18021.4	96163.7	10.8013	274.104
60	1.25893	97085.4	18567.3	98844.9	10.8269	277.494
61	1	99808.2	19125.2	101624	10.8475	283.879
62	0.794328	102627	19669	104495	10.8495	287.824
63	0.630957	105428	20262.2	107358	10.879	291.909
64	0.501187	108226	20884.7	110223	10.9222	296.484
65	0.398107	111087	21591.9	113166	10.9994	301.444
66	0.316228	113852	22400.2	116034	11.1307	306.685
67	0.251189	116548	23436.7	118881	11.37	312.8
68	0.199526	119207	24783.6	121756	11.7447	319.5
69	0.158489	121825.341	26546.6	124684	12.293	327.295
70	0.125893	124469	28841.1	127767	13.0459	336.46
71	0.1	127191	31732.5	131089.511	14.0086	347.15