File: data/plate_beam/Z_beam6_20241120.txt
Index	Frequency (Hz)	Z' (Ω)	-Z'' (Ω)	Z (Ω)	-Phase (°)	Time (s)
1	1000000	2395.77	5349.16	5861.17	65.8734	53.0448
2	794328.25	3270.57	6118.59	6937.85	61.8741	63.39
3	630957.375	4358.87	6857.16	8125.3	57.5572	68.7951
4	501187	5435.75	7663.64	9395.67	54.6523	71.5051
5	398107	6720.86	8435.06	10785.2	51.453	80.0953
6	316228	8182.79	9261.31	12358.4	48.5379	82.2803
7	251189	9878.21	10034.8	14081.1	45.4505	88.9605
8	199526	11567.4	10736.4	15782.1	42.8661	91.1255
9	158489	13625	11415	17774.8	39.9562	93.5056
10	125893	15687.8	11833.9	19650.7	37.0286	95.1406
11	100000	17873.6	12262.2	21675.5	34.4521	96.8706
12	79432.8	19961.7	12415.1	23507.6	31.8795	102.231
13	63095.7	22212.4	12258	25370.2	28.8923	106.846
14	50118.7	24387.8	11948.1	27157.3	26.1012	114.091
15	39810.7	26509.6	11465	28882.6	23.3877	116.816
16	31622.8	28366.9	10926.9	30398.653	21.0666	125.351
17	25118.9	30084.7	10310.3	31802.4	18.9171	128.941
18	19952.6	31622.6	9644.99	33060.8	16.9619	131.561
19	15848.9	32992	9014.19	34201.3	15.2816	139.691
20	12589.3	34205.2	8397.58	35220.9	13.7937	150.197
21	10000	35285.5	7850.6	36148.3	12.5433	158.517
22	7943.28	36259.8	7379.16	37003	11.5031	164.832
23	6309.57	37171.9	6976.97	37821	10.6304	171.417
24	5011.87	37981.7	6683.47	38565.2	9.97991	183.317
25	3981.07	38783.6	6478.18	39320.9	9.4828	185.422
26	3162.28	39568.1	6322.34	40070	9.07819	187.327
27	2511.89	40344.1	6272.74	40828.8	8.83764	189.152
28	1995.26	41165.3	6222.57	41632.9	8.59579	191.002
29	1584.89	41988.5	6244.79	42450.3	8.45939	192.732
30	1258.93	42864.2	6300.18	43324.7	8.36146	194.482
31	1000	43655.1	6388.49	44120.1	8.32557	196.567
32	794.328	44584.9	6539.44	45061.9	8.34429	198.748
33	630.957	45584.2	6552.55	46052.7	8.18001	200.773
34	501.187	46514.6	6672.96	46990.8	8.16392	202.568
35	398.107	47469.9	6773.95	47950.7	8.12128	204.368
36	316.228	48428	6881.87	48914.5	8.08788	206.388
37	251.189	49398.7	7008.72	49893.4	8.075265	208.418
38	199.526	50375	7170.86	50882.8	8.10161	210.473
39	158.489	51360	7360.51	51884.7	8.15565	212.513
40	125.893	52394.5	7579.25	52939.8	8.23116	214.583
41	100	53450.6	7835.45	54021.8	8.33973	216.658
42	79.4328	54528.8	8194.18	55141	8.54604	218.663
43	63.0957	55693.7	8519.9	56341.6	8.69755	220.873
44	50.1187	56895.4	8869.06	57582.5	8.86016	222.968
45	39.8107	58179.2	9254.76	58910.7	9.0385	232.878
46	31.6228	59518.1	9662.46	60297.3	9.22123	235.118
47	25.1189	60938.1	10093.9	61768.4	9.40514	237.403
48	19.9526	62422.2	10525.5	63303.4	9.57102	240.178
49	15.8489	63992.3	10985.6	64928.4	9.74109	242.818
50	12.5893	65638.7	11447.1	66629.4	9.8926	245.613
51	10	67354.5	11904.2	68398.3	10.0229	248.413
52	7.94328	69102.8	12525.3	70228.8	10.2737	251.448
53	6.30957	70958.5	12964.2	72133	10.3538	254.614
54	5.01187	72925.2	13401.6	74146.4	10.4132	257.674
55	3.98107	74999.2	13803.3	76258.8	10.4283	260.859
56	3.16228	77055.3	14252.4	78362.3	10.4792	264.019
57	2.51189	79207.8	14721	80564.2	10.5284	267.284
58	1.99526	81338.8	15166.5	82740.7	10.5621	270.804
59	1.58489	83608.7	15623.9	85056	10.5848	274.104
60	1.25893	85881.1	16077.8	87373.1	10.6036	277.494
61	1	88231.6	16531.1	89766.8	10.6119	283.879
62	0.794328	90665	16933.3	92232.7	10.5791	287.824
63	0.630957	93048.1	17442.7	94668.9	10.6174	291.909
64	0.501187	95413.8	18001.7	97097.1	10.6844	296.484
65	0.398107	97802.5	18668.5	99568.3	10.8066	301.444
66	0.316228	100123	19467.2	101998	11.0029	306.685
67	0.251189	102362	20515.9	104398	11.3334	312.8
68	0.199526	104590	21908.3	106859.615	11.8306	319.5
69	0.158489	106800	23703.3	109399	12.5135	327.295
70	0.125893	109099	26025.9	112160	13.4173	336.46
71	0.1	111509	28922.2	115198	14.5405	347.15