File: data/plate_beam/Z_beam4_20241205.txt
Index	Frequency (Hz)	Z' (Ω)	-Z'' (Ω)	Z (Ω)	-Phase (°)	Time (s)
1	1000000	2006.26	6068.04	6391.1	71.7047	53.0448
2	794328.25	2974.7	7022.92	7626.94	67.0439	63.39
3	630957.375	4090.77	8055.74	9034.89	63.0782	68.7951
4	501187	5353.36	9160.18	10609.8	59.6973	71.5051
5	398107	6791.97	10302	12339.5	56.6037	80.0953
6	316228	8543.61	11474.6	14305.9	53.3298	82.2803
7	251189	10521.6	12731.8	16516.7	50.4294	88.9605
8	199526	12621.3	13958.1	18818.2	47.8794	91.1255
9	158489	14976.1	15162.8	21311.8	45.3549	93.5056
10	125893	17749.3	16370.2	24145.8	42.6855	95.1406
11	100000	20551.1	17297.2	26861.5	40.0863	96.8706
12	79432.8	23602.9	18092.4	29739.4	37.4713	102.231
13	63095.7	26908	18465.7	32634.7	34.46	106.846
14	50118.7	30228.8	18651.8	35520	31.6755	114.091
15	39810.7	33608.7	18589.6	38407.3	28.9478	116.816
16	31622.8	36776	18373.3	41110.2	26.5468	125.351
17	25118.9	39839.4	18001.6	43717.6	24.3161	128.941
18	19952.6	42735.5	17494.7	46177.8	22.2628	131.561
19	15848.9	45463.3	16912.1	48507	20.405	139.691
20	12589.3	48027.9	16311.5	50722.2	18.7588	150.197
21	10000	50440.9	15651.9	52813.5	17.2392	158.517
22	7943.28	52714	15012	54809.9	15.896	164.832
23	6309.57	54891.9	14370.3	56741.8	14.6704	171.417
24	5011.87	56907.722	13734.5	58541.7	13.5687	183.317
25	3981.07	58808.1	13166.4	60264	12.6197	185.422
26	3162.28	60579.7	12644.1	61885.1	11.7894	187.327
27	2511.89	62290.9	12081.6	63451.8	10.9764	189.152
28	1995.26	63883.5	11726	64950.8	10.401	191.002
29	1584.89	65396.1	11296.9	66364.6	9.80086	192.732
30	1258.93	66896.2	11053.5	67803.3	9.38244	194.482
31	1000	68320.9	10785.4	69167	8.97089	196.567
32	794.328	69830.3	10722.819	70648.8	8.72989	198.748
33	630.957	71315.8	10486	72082.6	8.36461	200.773
34	501.187	72718.6	10454.1	73466.2	8.18081	202.568
35	398.107	74143.4	10474.4	74879.6	8.04106	204.368
36	316.228	75562.3	10558.6	76296.4	7.95464	206.388
37	251.189	76999.2	10698	77738.8	7.90982	208.418
38	199.526	78454.6	10908.8	79209.4	7.91596	210.473
39	158.489	79943.9	11159.9	80719.1	7.94697	212.513
40	125.893	81461.2	11486.8	82267.1	8.02635	214.583
41	100	83049	11873.5	83893.5	8.13641	216.658
42	79.4328	84693.2	12384.3	85593.9	8.31916	218.663
43	63.0957	86434.4	12872.8	87387.7	8.47091	220.873
44	50.1187	88239.9	13404.3	89252.2	8.63764	222.968
45	39.8107	90165.6	13990.1	91244.5	8.81968	232.878
46	31.6228	92167.8	14611.3	93318.8	9.00808	235.118
47	25.1189	94294.6	15271.459	95523.2	9.19945	237.403
48	19.9526	96512.6	15951.8	97822	9.38511	240.178
49	15.8489	98854.1	16673.7	100250	9.57396	242.818
50	12.5893	101304	17409.7	102789	9.75134	245.613
51	10	103878.924	18181.2	105458	9.92751	248.413
52	7.94328	106517	19050.6	108207	10.1402	251.448
53	6.30957	109280.03	19842	111067	10.2911	254.614
54	5.01187	112203	20668.8	114091	10.4374	257.674
55	3.98107	115268	21544.9	117264	10.5871	260.859
56	3.16228	118349	22442	120458	10.7373	264.019
57	2.51189	121611	23422.6	123847	10.9018	267.284
58	1.99526	124863	24422.1	127228	11.0669	270.804
59	1.58489	128335	25542.6	130852	11.2565	274.104
60	1.25893	131856	26715.7	134535	11.4538	277.494
61	1	135548	28022.6	138414	11.6805	283.879
62	0.794328	139381	29546.7	142478.727	11.9686	287.824
63	0.630957	143309	31154.5	146656	12.2649	291.909
64	0.501187	147391	32866.6	151011	12.5707	296.484
65	0.398107	151676	34887.7	155636	12.9536	301.444
66	0.316228	156087	37129.5	160442	13.3807	306.685
67	0.251189	160588	39722.2	165428	13.8935	312.8
68	0.199526	165296.639	42743.1	170734	14.4982	319.5
69	0.158489	170164	46251.3	176337	15.2059	327.295
70	0.125893	175273	50337.6	182358	16.0238	336.46
71	0.1	180648	55130.1	188873	16.9711	347.15