File: data/plate_beam/Z_beam7_20241120.txt
Index	Frequency (Hz)	Z' (Ω)	-Z'' (Ω)	Z (Ω)	-Phase (°)	Time (s)
1	1000000	3981.18	8366.24	9265.2	64.552	53.0448
2	794328.25	5309.41	9558.14	10933.8	60.9485	63.39
3	630957.375	6757.86	10917.2	12839.6	58.2421	68.7951
4	501187	8536.14	12343.5	15007.6	55.3342	71.5051
5	398107	10454.1	13860.9	17361.3	52.9758	80.0953
6	316228	12788.2	15493.3	20089.3	50.4637	82.2803
7	251189	15169.8	17175.8	22915.7	48.5489	88.9605
8	199526	18244.6	18897.7	26267.6	46.0073	91.1255
9	158489	21601.9	20585	29839.2	43.6192	93.5056
10	125893	25288	22260.6	33690	41.3569	95.1406
11	100000	29051	23664.4	37469.5	39.1655	96.8706
12	79432.8	33276.1	24969.8	41602.7	36.8839	102.231
13	63095.7	37811.5	25632.1	45680.6	34.1331	106.846
14	50118.7	42413.9	26072.5	49786.7	31.5797	114.091
15	39810.7	47173.9	26243.5	53982.3	29.0878	116.816
16	31622.8	51646.8	26250.8	57935.2	26.9431	125.351
17	25118.9	56047.026	26081.2	61818.3	24.9547	128.941
18	19952.6	60332.7	25738.9	65593.6	23.1039	131.561
19	15848.9	64425.7	25275.8	69206.5	21.4213	139.691
20	12589.3	68413.4	24699.9	72735.7	19.8516	150.197
21	10000	72221.3	24052.3	76121.2	18.4196	158.517
22	7943.28	75798.1	23596.8	79386.1	17.2919	164.832
23	6309.57	79320.2	22725.8	82511.5	15.9874	171.417
24	5011.87	82650.8	21821.6	85483	14.7898	183.317
25	3981.07	85800.8	20983.4	88329.4	13.7425	185.422
26	3162.28	88793.6	20119.9	91044.5	12.7672	187.327
27	2511.89	91566.3	19316.1	93581.5	11.912	189.152
28	1995.26	94240.5	18618.9	96062.2	11.1759	191.002
29	1584.89	96733.8	17992.7	98392.9	10.5367	192.732
30	1258.93	99179.5	17455.1	100704	9.98156	194.482
31	1000	101550.028	17041.7	102970	9.52635	196.567
32	794.328	103779	16617	105101	9.09693	198.748
33	630.957	105943	16311.2	107191	8.75265	200.773
34	501.187	108171	16197	109377	8.51589	202.568
35	398.107	110314	16184	111495	8.34622	204.368
36	316.228	112489	16276	113660	8.23298	206.388
37	251.189	114671	16475.9	115849	8.17626	208.418
38	199.526	116895	16782.2	118093	8.16991	210.473
39	158.489	119179	17169.212	120409	8.19777	212.513
40	125.893	121518	17659.8	122794	8.26874	214.583
41	100	123965	18243.3	125300	8.3718	216.658
42	79.4328	126483	19035.7	127907	8.55878	218.663
43	63.0957	129167	19768	130671	8.70113	220.873
44	50.1187	131941	20563.2	133534	8.85833	222.968
45	39.8107	134899	21439.6	136592	9.03054	232.878
46	31.6228	137964	22368.5	139765.406	9.2094	235.118
47	25.1189	141223	23358.8	143142	9.39188	237.403
48	19.9526	144609	24390.2	146651	9.57361	240.178
49	15.8489	148171	25475.9	150346	9.75579	242.818
50	12.5893	151913	26621.3	154228	9.93963	245.613
51	10	155850	27782.3	158307	10.1076	248.413
52	7.94328	159857	29179	162497.871	10.3444	251.448
53	6.30957	164107	30390.2	166897	10.4915	254.614
54	5.01187	168582	31660	171529	10.6363	257.674
55	3.98107	173315	32967.5	176422	10.77	260.859
56	3.16228	178114	34318.3	181390	10.9059	264.019
57	2.51189	183189	35721.8	186639	11.0342	267.284
58	1.99526	188296	37149.3	191926	11.1607	270.804
59	1.58489	193760.08	38626	197573	11.2741	274.104
60	1.25893	199268	40081.7	203260	11.373	277.494
61	1	205021	41601.4	209199	11.4703	283.879
62	0.794328	210791	43579.3	215249	11.6809	287.824
63	0.630957	216690	45164	221346.465	11.7734	291.909
64	0.501187	222584	46936.6	227479	11.9076	296.484
65	0.398107	228575	49080.1	233785	12.1187	301.444
66	0.316228	234460	51591.1	240068.999	12.4097	306.685
67	0.251189	240252.4	54835.1	246431	12.8569	312.8
68	0.199526	246193	58867.6	253133	13.4476	319.5
69	0.158489	252289	63864.1	260247	14.2054	327.295
70	0.125893	258724	69959.6	268016.076	15.131	336.46
71	0.1	265645	77332.9	276673	16.231	347.15