File: data/plate_beam/Z_beam6_20241212.txt
Index	Frequency (Hz)	Z' (Ω)	-Z'' (Ω)	Z (Ω)	-Phase (°)	Time (s)
1	1000000	2339.31	5885.74	6333.59	68.3245	53.0448
2	794328.25	3266.52	6734.91	7485.26	64.126	63.39
3	630957.375	4374.69	7701.8	8857.51	60.4031	68.7951
4	501187	5659.82	8731.16	10405.1	57.0474	71.5051
5	398107	6982.73	9715.95	11964.9	54.2957	80.0953
6	316228	8612.43	10846	13849.5	51.5481	82.2803
7	251189	10448.3	11920	15850.9	48.7643	88.9605
8	199526	12551.8	12932.7	18022.3	45.8561	91.1255
9	158489	14870.7	14105	20496.1	43.4863	93.5056
10	125893	17457.3	14915.8	22961.7	40.5111	95.1406
11	100000	20262.433	15572.1	25555	37.5431	96.8706
12	79432.8	22931.6	16153.8	28050.1	35.1622	102.231
13	63095.7	25926.9	16231.7	30588.8	32.0489	106.846
14	50118.7	28900.2	16111.2	33087.6	29.1387	114.091
15	39810.7	31855.2	15714.7	35520.5	26.2578	116.816
16	31622.8	34546.7	15189.3	37738.5	23.7338	125.351
17	25118.9	37067.5	14503.9	39804.1	21.3696	128.941
18	19952.6	39371.3	13694.7	41685.1	19.1794	131.561
19	15848.9	41421.1	12848.7	43368.1	17.2338	139.691
20	12589.3	43260.2	11994.8	44892.3	15.4971	150.197
21	10000	44951.9	11183.7	46322.2	13.9711	158.517
22	7943.28	46425.8	10447.2	47586.7	12.682	164.832
23	6309.57	47727.9	9726.8	48709	11.519	171.417
24	5011.87	48866.9	9146.59	49715.5	10.6016	183.317
25	3981.07	50042.3	8662.17	50786.5	9.82041	185.422
26	3162.28	51040.8	8237.07	51701.2	9.16747	187.327
27	2511.89	52060.2	7977.94	52668	8.71248	189.152
28	1995.26	52947.4	7839.52	53524.6	8.42216	191.002
29	1584.89	53878	7743.82	54431.6	8.17904	192.732
30	1258.93	54920.8	7738.93	55463.4	8.02078	194.482
31	1000	55902.7	7817.89	56446.7	7.96108	196.567
32	794.328	56984.4	7981.1	57540.6	7.97285	198.748
33	630.957	58106.3	7984.86	58652.3	7.82448	200.773
34	501.187	59248	8165.56	59808	7.84708	202.568
35	398.107	60427.6	8361.5	61003.3	7.87812	204.368
36	316.228	61636.6	8572.2	62229.8	7.91771	206.388
37	251.189	62874.4	8794.24	63486.5	7.9623	208.418
38	199.526	64133.1	9034.57	64766.4	8.01861	210.473
39	158.489	65417.9	9302.43	66075.9	8.09321	212.513
40	125.893	66733.2	9597.37	67419.8	8.18399	214.583
41	100	68086.9	9933.2	68807.6	8.30033	216.658
42	79.4328	69472.9	10357.1	70240.7	8.47925	218.663
43	63.0957	70946.9	10767.5	71759.4	8.62985	220.873
44	50.1187	72469.6	11209.6	73331.5	8.79282	222.968
45	39.8107	74086.9	11698.7	75004.9	8.97323	232.878
46	31.6228	75766.9	12219.4	76745.9	9.16156	235.118
47	25.1189	77558.5	12775.2	78603.6	9.35357	237.403
48	19.9526	79423	13342.6	80535.9	9.53629	240.178
49	15.8489	81403.4	13941.7	82588.6	9.71854	242.818
50	12.5893	83478.9	14556.4	84738.6	9.89131	245.613
51	10	85666.5	15183.6	87001.6	10.0508	248.413
52	7.94328	87920.8	15873.9	89342.3	10.2344	251.448
53	6.30957	90279.5	16495.7	91774.1	10.3547	254.614
54	5.01187	92766.4	17124	94333.6	10.4587	257.674
55	3.98107	95386.7	17746.5	97023.5	10.5392	260.859
56	3.16228	98020.2	18363.7	99725.6	10.6112	264.019
57	2.51189	100798	19013.1	102575	10.682	267.284
58	1.99526	103550	19629.1	105394	10.7337	270.804
59	1.58489	106497	20263.5	108408	10.773	274.104
60	1.25893	109465	20883.1	111439	10.8008	277.494
61	1	112548	21519.5	114587	10.8244	283.879
62	0.794328	115711	22204	117822	10.8626	287.824
63	0.630957	118907	22834.7	121079.787	10.8707	291.909
64	0.501187	122118	23485.7	124356.182	10.8862	296.484
65	0.398107	125402	24216.6	127718	10.93	301.444
66	0.316228	128594	25011.5	131003.696	11.0066	306.685
67	0.251189	131718	26018.4	134263	11.1739	312.8
68	0.199526	134799	27320.2	137540	11.4571	319.5
69	0.158489	137789	29023.7	140813	11.8948	327.295
70	0.125893	140788	31234.1	144211	12.5086	336.46
71	0.1	143818	34106.984	147806.874	13.3414	347.15