File: data/plate_beam/Z_beam6_20241129.txt
Index	Frequency (Hz)	Z' (Ω)	-Z'' (Ω)	Z (Ω)	-Phase (°)	Time (s)
1	1000000	2438.39	5524.42	6038.62	66.1841	53.0448
2	794328.25	3357.97	6283.25	7124.27	61.8785	63.39
3	630957.375	4419.75	7094.77	8358.82	58.0788	68.7951
4	501187	5610.56	7881.19	9674.27	54.5532	71.5051
5	398107	6913.99	8755.67	11156.4	51.7033	80.0953
6	316228	8418.53	9551.16	12731.7	48.6066	82.2803
7	251189	10091.9	10346.5	14453.2	45.7135	88.9605
8	199526	11957.4	11153	16351.4	43.0066	91.1255
9	158489	13964.6	11839.9	18308.3	40.293	93.5056
10	125893	16225.2	12360.7	20397.1	37.3009	95.1406
11	100000	18424.4	12655.3	22352.1	34.4842	96.8706
12	79432.8	20634.2	12953.1	24362.9	32.1185	102.231
13	63095.7	22999.6	12830.1	26336.2	29.1546	106.846
14	50118.7	25277.7	12525.5	28210.825	26.3592	114.091
15	39810.7	27522.7	12052.4	30045.9	23.6489	116.816
16	31622.8	29487.4	11502.5	31651.5	21.3098	125.351
17	25118.9	31300.6	10876	33136.3	19.1608	128.941
18	19952.6	32930.9	10204.6	34475.7	17.2171	131.561
19	15848.9	34399	9540.11	35697.4	15.5006	139.691
20	12589.3	35694.7	8907.6	36789.4	14.012	150.197
21	10000	36856.5	8327.69	37785.6	12.7322	158.517
22	7943.28	37888.9	7808.66	38685.2	11.6452	164.832
23	6309.57	38855.7	7386.03	39551.5	10.7629	171.417
24	5011.87	39735.5	7061.19	40358.1	10.0765	183.317
25	3981.07	40563.2	6783.21	41126.5	9.49347	185.422
26	3162.28	41422.1	6630.26	41949.4	9.09395	187.327
27	2511.89	42241.9	6535.78	42744.5	8.79521	189.152
28	1995.26	43084.7	6499.97	43572.2	8.57923	191.002
29	1584.89	43896.8	6578.62	44387	8.52323	192.732
30	1258.93	44836	6590.09	45317.8	8.36157	194.482
31	1000	45787.4	6590	46259.2	8.19012	196.567
32	794.328	46674.3	6734.26	47157.6	8.21008	198.748
33	630.957	47633.9	6881.41	48128.4	8.22033	200.773
34	501.187	48610.9	6943.3	49104.2	8.12882	202.568
35	398.107	49763	7101.08	50267.2	8.12116	204.368
36	316.228	50767.9	7212.43	51277.7	8.08571	206.388
37	251.189	51786.5	7352.4	52305.8	8.08058	208.418
38	199.526	52814	7506.94	53344.8	8.08979	210.473
39	158.489	53855.1	7706.33	54403.7	8.14338	212.513
40	125.893	54917.8	7931.94	55487.7	8.21857	214.583
41	100	56028.2	8202.82	56625.5	8.32923	216.658
42	79.4328	57158.1	8565.13	57796.3	8.52235	218.663
43	63.0957	58378.8	8898.49	59053.1	8.6667	220.873
44	50.1187	59636.8	9223.8	60345.9	8.79206	222.968
45	39.8107	60968.6	9667.28	61730.3	9.0099	232.878
46	31.6228	62362.5	10090.4	63173.6	9.19091	235.118
47	25.1189	63845.4	10539.8	64709.5	9.37405	237.403
48	19.9526	65389.2	10994.9	66307.1	9.54476	240.178
49	15.8489	67029.1	11470.6	68003.5	9.71086	242.818
50	12.5893	68747.3	11965.1	69780.8	9.87314	245.613
51	10	70543.9	12461.7	71636.2	10.0181	248.413
52	7.94328	72385.8	13087.8	73559.5	10.2487	251.448
53	6.30957	74367.2	13480.1	75579	10.2741	254.614
54	5.01187	76402.3	13972.1	77669.4	10.3635	257.674
55	3.98107	78549	14461	79869.1	10.4314	260.859
56	3.16228	80689	14927.7	82058.2	10.4814	264.019
57	2.51189	82951.9	15416.5	84372.3	10.5282	267.284
58	1.99526	85187.7	15884.4	86656	10.5623	270.804
59	1.58489	87574.9	16361.4	89090.1	10.5824	274.104
60	1.25893	89959.4	16823.591	91518.9	10.5927	277.494
61	1	92432.6	17295.2	94036.8	10.5981	283.879
62	0.794328	94978.1	17719.7	96616.9	10.568	287.824
63	0.630957	97482.1	18229.6	99172	10.5923	291.909
64	0.501187	99977.2	18778.9	101726	10.638	296.484
65	0.398107	102481	19423.1	104306	10.7319	301.444
66	0.316228	104929	20198.6	106855	10.896	306.685
67	0.251189	107283	21225.4	109363	11.1912	312.8
68	0.199526	109608	22568.3	111907	11.6346	319.5
69	0.158489	111919.703	24336.9	114535	12.268	327.295
70	0.125893	114282	26629.6	117343	13.1169	336.46
71	0.1	116786	29531.6	120462	14.1909	347.15