File: data/plate_beam/Z_beam3_20241205.txt
Index	Frequency (Hz)	Z' (Ω)	-Z'' (Ω)	Z (Ω)	-Phase (°)	Time (s)
1	1000000	4360.87	8202.08	9289.31	62.0014	53.0448
2	794328.25	5602.74	9359.92	10908.7	59.0958	63.39
3	630957.375	7008.26	10632.11	12734.1	56.6087	68.7951
4	501187	8692.61	11981.7	14802.8	54.0394	71.5051
5	398107	10595.4	13534.5	17188.5	51.9446	80.0953
6	316228	12839.1	15114.1	19831.2	49.6529	82.2803
7	251189	15199.5	16753.3	22620.7	47.784	88.9605
8	199526	18115.4	18523.1	25909	45.6375	91.1255
9	158489	21425.7	20215.7	29457.3	43.3356	93.5056
10	125893	25140.3	21654.4	33180.5	40.7398	95.1406
11	100000	28967.8	23208.5	37118.3	38.7011	96.8706
12	79432.8	33095.9	24319.8	41070.5	36.3094	102.231
13	63095.7	37605	24834.5	45065.3	33.441	106.846
14	50118.7	42180.8	25095.4	49081.6	30.7505	114.091
15	39810.7	46848.3	25012.9	53107.5	28.0983	116.816
16	31622.8	51214.3	24743.4	56878.3	25.7867	125.351
17	25118.9	55418.4	24201.3	60472.4	23.591	128.941
18	19952.6	59427	23505.1	63906.6	21.5803	131.561
19	15848.9	63208.4	22609.8	67130.5	19.6823	139.691
20	12589.3	66683.2	21661.6	70113.3	17.996	150.197
21	10000	69978.1	20653.7	72962.4	16.4437	158.517
22	7943.28	72892.4	19899.5	75559.9	15.2696	164.832
23	6309.57	75708.427	18770.3	78000.6	13.9245	171.417
24	5011.87	78291	17743.7	80276.5	12.7697	183.317
25	3981.07	80693.8	16792.5	82422.6	11.7556	185.422
26	3162.28	82899.8	15934.1	84417.2	10.8801	187.327
27	2511.89	84983.1	15204.4	86332.5	10.1435	189.152
28	1995.26	86926.7	14559.6	88137.6	9.50839	191.002
29	1584.89	88809.7	14038	89912.4	8.98232	192.732
30	1258.93	90645.8	13656.1	91668.7	8.56735	194.482
31	1000	92398	13365.9	93359.8	8.23105	196.567
32	794.328	94185.2	13006	95078.9	7.86223	198.748
33	630.957	95966.8	12951.7	96836.9	7.6862	200.773
34	501.187	97593.8	12884.9	98440.7	7.521	202.568
35	398.107	99303.4	12943.2	100143	7.42605	204.368
36	316.228	101045	13107.5	101892	7.39113	206.388
37	251.189	102812	13341.5	103674	7.39378	208.418
38	199.526	104614	13667.1	105503	7.44319	210.473
39	158.489	106472	14071.8	107397.922	7.5288	212.513
40	125.893	108413	14568.2	109388	7.65339	214.583
41	100	110449	15125.4	111480.335	7.79784	216.658
42	79.4328	112546	15836.2	113655	8.00942	218.663
43	63.0957	114801	16508.8	115982	8.18323	220.873
44	50.1187	117150	17223.9	118409	8.36397	222.968
45	39.8107	119653	17996.9	120999	8.55367	232.878
46	31.6228	122268	18799.5	123705	8.74115	235.118
47	25.1189	125045	19644.6	126579	8.92822	237.403
48	19.9526	127934.005	20489.2	129564	9.09892	240.178
49	15.8489	130978	21364.4	132709	9.26417	242.818
50	12.5893	134166	22248.2	135998	9.41548	245.613
51	10	137518	23157.3	139455	9.55858	248.413
52	7.94328	140910	24187.1	142971	9.73986	251.448
53	6.30957	144483	25065.3	146641	9.84189	254.614
54	5.01187	148219	25963.1	150476	9.93556	257.674
55	3.98107	152123	26865.1	154477	10.0152	260.859
56	3.16228	156034	27761.8	158485	10.0886	264.019
57	2.51189	160135.965	28717.5	162691	10.1669	267.284
58	1.99526	164160	29662.2	166818.135	10.2423	270.804
59	1.58489	168408	30710.5	171186	10.3347	274.104
60	1.25893	172622	31787.7	175525	10.4339	277.494
61	1	176948	33009.6	180001	10.567	283.879
62	0.794328	181251	34684.2	184539	10.8332	287.824
63	0.630957	185592	36260.7	189101.353	11.0551	291.909
64	0.501187	189900	38193.7	193702	11.3719	296.484
65	0.398107	194299.553	40629.1	198502	11.8107	301.444
66	0.316228	198682	43606.9	203412	12.379	306.685
67	0.251189	203016	47439.2	208485	13.1525	312.8
68	0.199526	207549	52222.7	214018	14.1234	319.5
69	0.158489	212358	58074.8	220156	15.295	327.295
70	0.125893	217612	65184	227165	16.6752	336.46
71	0.1	223454	73632.8	235273	18.2381	347.15