File: data/plate_beam/Z_beam2_20241120.txt
Index	Frequency (Hz)	Z' (Ω)	-Z'' (Ω)	Z (Ω)	-Phase (°)	Time (s)
1	1000000	5189.26	7619.16	9218.46	55.742	53.0448
2	794328.25	6412.73	8583.68	10714.6	53.2372	63.39
3	630957.375	7747.57	9606.64	12341.5	51.1145	68.7951
4	501187	9434.49	10676.5	14247.7	48.534	71.5051
5	398107	11268.5	11784.9	16305.3	46.2831	80.0953
6	316228	13274.3	12898.9	18509.1	44.1782	82.2803
7	251189	15651.6	13851.6	20900.7	41.5087	88.9605
8	199526	18212.1	14843.4	23494.8	39.1811	91.1255
9	158489	21011.2	15739.3	26252.5	36.8365	93.5056
10	125893	23953.7	16270.3	28956.9	34.1858	95.1406
11	100000	26830.9	16728.7	31618.8	31.943	96.8706
12	79432.8	29779.5	16863	34222.5	29.5213	102.231
13	63095.7	32760.1	16613.1	36731.7	26.8902	106.846
14	50118.7	35603.458	16216.3	39122.5	24.4878	114.091
15	39810.7	38388.4	15698.8	41474.3	22.2419	116.816
16	31622.8	40819.5	15204.7	43559.3	20.4297	125.351
17	25118.9	43144.3	14704.8	45581.3	18.8206	128.941
18	19952.6	45313.4	14204.4	47487.6	17.4046	131.561
19	15848.9	47395.2	13752.2	49350	16.1807	139.691
20	12589.3	49369.9	13306.2	51131.6	15.084	150.197
21	10000	51311.5	12896.9	52907.4	14.1088	158.517
22	7943.28	53179	12487.9	54625.6	13.2152	164.832
23	6309.57	55010.5	12055.8	56316.1	12.3612	171.417
24	5011.87	56700.8	11621.1	57879.5	11.5826	183.317
25	3981.07	58367.1	11200.9	59432.1	10.8632	185.422
26	3162.28	59877.6	10759.5	60836.6	10.1869	187.327
27	2511.89	61412.7	10380.8	62283.8	9.59421	189.152
28	1995.26	62751	10100.4	63558.7	9.14387	191.002
29	1584.89	64064.2	9813.78	64811.6	8.70924	192.732
30	1258.93	65401.8	9678.63	66114.1	8.41794	194.482
31	1000	66692.2	9449.93	67358.4	8.06482	196.567
32	794.328	67859.2	9316.1	68495.7	7.81702	198.748
33	630.957	69073.2	9381.84	69707.4	7.73485	200.773
34	501.187	70329.4	9402.58	70955.2	7.61491	202.568
35	398.107	71579.5	9505.56	72207.9	7.56446	204.368
36	316.228	72859	9680.77	73499.3	7.56855	206.388
37	251.189	74188.2	9827.53	74836.3	7.5459	208.418
38	199.526	75536.9	10137.3	76214.1	7.6436	210.473
39	158.489	76937.8	10503.2	77651.5	7.77369	212.513
40	125.893	78411.3	10911.8	79166.9	7.92248	214.583
41	100	79968.9	11368.1	80772.9	8.09072	216.658
42	79.4328	81585.4	11917.4	82451.2	8.31057	218.663
43	63.0957	83323.5	12422.4	84244.4	8.47955	220.873
44	50.1187	85135.5	12941.2	86113.5	8.64319	222.968
45	39.8107	87064.6	13483.3	88102.5	8.8032	232.878
46	31.6228	89062.7	14023.4	90159.9	8.94809	235.118
47	25.1189	91180.2	14568.6	92336.7	9.07786	237.403
48	19.9526	93364.3	15098.8	94577.3	9.18627	240.178
49	15.8489	95652.5	15624.2	96920.1	9.27697	242.818
50	12.5893	98024.3	16133.1	99343.1	9.34609	245.613
51	10	100483	16629	101849	9.3968	248.413
52	7.94328	102964	17182.9	104388	9.47434	251.448
53	6.30957	105533	17614.5	106993	9.47589	254.614
54	5.01187	108182	18036.6	109675	9.46555	257.674
55	3.98107	110912	18445.1	112435	9.44211	260.859
56	3.16228	113618	18847.9	115171	9.41893	264.019
57	2.51189	116386	19251.2	117967	9.39218	267.284
58	1.99526	119075.244	19657.1	120687	9.37391	270.804
59	1.58489	121871	20113.9	123520	9.37177	274.104
60	1.25893	124584	20615.8	126278	9.39599	277.494
61	1	127312	21209.2	129067	9.45815	283.879
62	0.794328	130005	21986.2	131851	9.59892	287.824
63	0.630957	132590	22936	134559.016	9.81416	291.909
64	0.501187	135088	24189.7	137236	10.1522	296.484
65	0.398107	137554	25897.6	139971	10.6624	301.444
66	0.316228	140000	28103.6	142793	11.3507	306.685
67	0.251189	142349	31050.6	145696	12.3052	312.8
68	0.199526	144903.374	34822	149029	13.5126	319.5
69	0.158489	147605	39494.5	152798	14.9796	327.295
70	0.125893	150588	45211.6	157229	16.7115	336.46
71	0.1	154030.966	52026.3	162580	18.6632	347.15