File: data/plate_beam/Z_beam1_20241120.txt
Index	Frequency (Hz)	Z' (Ω)	-Z'' (Ω)	Z (Ω)	-Phase (°)	Time (s)
1	1000000	2960.83	7107.63	7699.67	67.3848	53.0448
2	794328.25	4040.22	8214.28	9154.11	63.8096	63.39
3	630957.375	5216.75	9360.16	10715.7	60.8675	68.7951
4	501187	6656.08	10670.4	12576.2	58.0445	71.5051
5	398107	8245.65	12108.3	14649.3	55.7455	80.0953
6	316228	10117.4	13611.6	16959.9	53.3769	82.2803
7	251189	12283.8	15325.4	19640.7	51.2868	88.9605
8	199526	14663.8	17015.6	22462.4	49.2457	91.1255
9	158489	17539.1	18912.4	25793.4	47.1577	93.5056
10	125893	20619.6	20773.9	29269.8	45.2135	95.1406
11	100000	23892.9	22404	32753.7	43.1581	96.8706
12	79432.8	27706.4	24270.2	36833.2	41.2177	102.231
13	63095.7	31956.1	25644.2	40973.4	38.7465	106.846
14	50118.7	36440.89	26889	45287.5	36.4228	114.091
15	39810.7	41256.1	27941.4	49827.6	34.1084	116.816
16	31622.8	46023.9	28816.2	54300.8	32.0512	125.351
17	25118.9	50965.5	29540.7	58907.9	30.0975	128.941
18	19952.6	56017.5	29938.8	63516.1	28.1225	131.561
19	15848.9	61037	30122.6	68065.3	26.267	139.691
20	12589.3	66070.5	30101.2	72604.3	24.4936	150.197
21	10000	71031.3	29767.9	77016.6	22.7376	158.517
22	7943.28	75750.2	29471.2	81281.2	21.2589	164.832
23	6309.57	80444.2	28604.1	85378.4	19.5742	171.417
24	5011.87	84912.1	27637.6	89296.7	18.0293	183.317
25	3981.07	89079.2	26583.4	92961.2	16.6164	185.422
26	3162.28	93031.1	25482.5	96458	15.3184	187.327
27	2511.89	96739.1	24382.7	99764.5	14.1465	189.152
28	1995.26	100172	23281.4	102842	13.0841	191.002
29	1584.89	103373	22299.9	105750.744	12.1735	192.732
30	1258.93	106376	21320	108491	11.3332	194.482
31	1000	109255	20493.7	111160	10.6239	196.567
32	794.328	111900	19850.9	113647	10.0595	198.748
33	630.957	114561	19246.3	116167	9.53663	200.773
34	501.187	117026	18824.3	118530	9.1381	202.568
35	398.107	119443	18565.8	120877	8.83514	204.368
36	316.228	121841	18503.1	123238	8.63513	206.388
37	251.189	124259	18571.5	125639	8.50039	208.418
38	199.526	126686	18800.2	128073.071	8.4411	210.473
39	158.489	129128	19157.1	130541	8.43873	212.513
40	125.893	131646	19643.5	133103	8.48675	214.583
41	100	134308	20309.8	135835	8.599	216.658
42	79.4328	137016	21199.3	138647	8.79512	218.663
43	63.0957	139918	22091.5	141651.125	8.97233	220.873
44	50.1187	142953	23090.2	144806	9.17532	222.968
45	39.8107	146185	24220.8	148177	9.40767	232.878
46	31.6228	149579	25444.1	151728	9.65386	235.118
47	25.1189	153237	26795.2	155562	9.91853	237.403
48	19.9526	157060	28194.8	159571	10.1771	240.178
49	15.8489	161169	29717.1	163886	10.4471	242.818
50	12.5893	165514	31299.9	168448	10.7086	245.613
51	10	170167	32971	173331	10.9656	248.413
52	7.94328	174964	34874.8	178406	11.2728	251.448
53	6.30957	180123	36584.1	183801	11.4809	254.614
54	5.01187	185627	38288.8	189535	11.6548	257.674
55	3.98107	191498	40040.6	195639	11.8099	260.859
56	3.16228	197523	41748.5	201887	11.9344	264.019
57	2.51189	203900	43465.7	208481	12.0337	267.284
58	1.99526	210361	45053.6	215131	12.0886	270.804
59	1.58489	217281	46631.6	222229	12.1127	274.104
60	1.25893	224251	48068.9	229345	12.0985	277.494
61	1	231491	49436.9	236711	12.0549	283.879
62	0.794328	238712	51292.5	244160	12.1269	287.824
63	0.630957	246084	52477.7	251617	12.0381	291.909
64	0.501187	253431	53743.1	259067	11.9729	296.484
65	0.398107	260821	55195.7	266598	11.9488	301.444
66	0.316228	268024	56882.837	273994	11.9821	306.685
67	0.251189	275072	59170.2	281364	12.1398	312.8
68	0.199526	282067	62156.5	288834	12.4271	319.5
69	0.158489	289114	65495.6	296440	12.7643	327.295
70	0.125893	296022	70571.8	304318	13.4091	336.46
71	0.1	303339	77015.5	312963	14.246	347.15