File: data/plate_beam/Z_beam4_20241129.txt
Index	Frequency (Hz)	Z' (Ω)	-Z'' (Ω)	Z (Ω)	-Phase (°)	Time (s)
1	1000000	2411.82	6241.77	6691.53	68.8734	53.0448
2	794328.25	3450.03	7204.48	7987.94	64.4115	63.39
3	630957.375	4600	8194.14	9397.02	60.6912	68.7951
4	501187	6029.01	9193.96	10994.4	56.7448	71.5051
5	398107	7504.5	10216.2	12676.3	53.7001	80.0953
6	316228	9248.92	11306.2	14607.3	50.7155	82.2803
7	251189	11215.8	12360.5	16690.6	47.7799	88.9605
8	199526	13378.6	13474.3	18988	45.2043	91.1255
9	158489	15716.4	14297	21246.4	42.2923	93.5056
10	125893	18361.6	15082.7	23762.1	39.4006	95.1406
11	100000	21041.2	15799.8	26312.8	36.9028	96.8706
12	79432.8	23813.6	16426.8	28929.8	34.5982	102.231
13	63095.7	26760.8	16526.4	31452.5	31.6978	106.846
14	50118.7	29661	16480.6	33932.1	29.058	114.091
15	39810.7	32570.7	16228	36389.6	26.4843	116.816
16	31622.8	35242.7	15911.8	38668.2	24.2987	125.351
17	25118.9	37784.2	15508.1	40842.9	22.3151	128.941
18	19952.6	40200.4	15046.7	42924.1	20.5205	131.561
19	15848.9	42468.2	14560.9	44895	18.9251	139.691
20	12589.3	44632.8	14059.7	46794.9	17.4848	150.197
21	10000	46699.5	13575.5	48632.7	16.209	158.517
22	7943.28	48666.2	13072.5	50391.4	15.0356	164.832
23	6309.57	50521.6	12594.8	52067.9	13.9983	171.417
24	5011.87	52272.4	12157.6	53667.6	13.0932	183.317
25	3981.07	53962.3	11706.8	55217.6	12.2403	185.422
26	3162.28	55564.8	11256.9	56693.6	11.4526	187.327
27	2511.89	57060.2	10924.7	58096.6	10.8386	189.152
28	1995.26	58522.6	10589.8	59473	10.2568	191.002
29	1584.89	60052.1	10338.2	60935.5	9.76794	192.732
30	1258.93	61373	10139.4	62204.9	9.38104	194.482
31	1000	62866.5	9971.33	63652.4	9.01267	196.567
32	794.328	64137.5	9838.07	64887.6	8.72065	198.748
33	630.957	65454.5	9757.11	66177.7	8.47848	200.773
34	501.187	66760.7	9733.88	67466.6	8.29541	202.568
35	398.107	68066.8	9752.61	68762	8.15384	204.368
36	316.228	69390.6	9808.45	70080.4	8.04553	206.388
37	251.189	70707.2	9916.36	71399.2	7.9834	208.418
38	199.526	72056.6	10085.9	72759	7.96807	210.473
39	158.489	73436.9	10258.6	74149.9	7.95236	212.513
40	125.893	74837.6	10557.7	75578.7	8.02998	214.583
41	100	76300.6	10918.7	77077.8	8.14382	216.658
42	79.4328	77807.7	11394.4	78637.6	8.33139	218.663
43	63.0957	79409.7	11849.4	80289	8.48698	220.873
44	50.1187	81077.7	12340.1	82011.4	8.65406	222.968
45	39.8107	82853.2	12878.7	83848.1	8.83533	232.878
46	31.6228	84695.7	13449.3	85756.9	9.02299	235.118
47	25.1189	86659	14056.9	87791.7	9.21365	237.403
48	19.9526	88702.9	14676.7	89908.9	9.395	240.178
49	15.8489	90861.9	15332.2	92146.4	9.57797	242.818
50	12.5893	93118.3	16006.1	94483.9	9.75328	245.613
51	10	95491	16703.791	96941	9.92209	248.413
52	7.94328	97915.8	17502.7	99467.8	10.1347	251.448
53	6.30957	100453	18217.1	102092	10.2788	254.614
54	5.01187	103134	18959.7	104862.26	10.4167	257.674
55	3.98107	105951	19740.6	107774.212	10.5543	260.859
56	3.16228	108794	20549.1	110717	10.6961	264.019
57	2.51189	111782	21418.3	113816	10.8468	267.284
58	1.99526	114766.938	22312.5	116916	11.002	270.804
59	1.58489	117965	23302.1	120245	11.174	274.104
60	1.25893	121195	24336	123614	11.354	277.494
61	1	124585	25479.3	127163.965	11.5583	283.879
62	0.794328	128100	26796.1	130873	11.8148	287.824
63	0.630957	131712	28174.2	134692	12.074	291.909
64	0.501187	135412	29696.5	138631	12.3694	296.484
65	0.398107	139350	31456.3	142856	12.7205	301.444
66	0.316228	143336	33409.7	147178	13.1206	306.685
67	0.251189	147415	35684.5	151672	13.6077	312.8
68	0.199526	151672.018	38337.8	156442.291	14.1854	319.5
69	0.158489	156073	41422.2	161476	14.8638	327.295
70	0.125893	160690	45054.4	166887	15.6625	336.46
71	0.1	165533	49300.4	172718.439	16.585	347.15