File: data/plate_beam/Z_beam5_20241120.txt
Index	Frequency (Hz)	Z' (Ω)	-Z'' (Ω)	Z (Ω)	-Phase (°)	Time (s)
1	1000000	2356.82	5890.86	6344.82	68.1946	53.0448
2	794328.25	3314.04	6767.16	7535.07	63.9079	63.39
3	630957.375	4395.08	7684.22	8852.34	60.2321	68.7951
4	501187	5664.8	8667.28	10354.3	56.832	71.5051
5	398107	7055.43	9664.51	11965.9	53.8692	80.0953
6	316228	8658.7	10722	13781.6	51.0768	82.2803
7	251189	10461.6	11809.5	15776.8	48.4634	88.9605
8	199526	12513	12810.4	17907.6	45.6729	91.1255
9	158489	14820.7	13786	20241.2	42.9284	93.5056
10	125893	17337.4	14575.2	22650	40.053	95.1406
11	100000	19773.3	15351.3	25032.9	37.8246	96.8706
12	79432.8	22532.9	15957.5	27611.1	35.3056	102.231
13	63095.7	25390.5	16139.4	30085.9	32.442	106.846
14	50118.7	28232.6	16171.5	32536.1	29.8039	114.091
15	39810.7	31108.2	16015.5	34988.8	27.2409	116.816
16	31622.8	33762.4	15769.9	37263.8	25.0365	125.351
17	25118.9	36337.1	15432.2	39478.3	23.0107	128.941
18	19952.6	38780.9	14983.5	41574.8	21.1247	131.561
19	15848.9	41109.8	14499.6	43591.9	19.4279	139.691
20	12589.3	43327.8	13968.9	45523.9	17.8693	150.197
21	10000	45417.7	13411.8	47356.6	16.4518	158.517
22	7943.28	47392.2	12831.9	49098.6	15.1501	164.832
23	6309.57	49265.1	12203.1	50754	13.9123	171.417
24	5011.87	51008.4	11620	52315.3	12.8333	183.317
25	3981.07	52608.1	11018	53749.5	11.8288	185.422
26	3162.28	54096.9	10510.9	55108.5	10.9955	187.327
27	2511.89	55521.7	9983.52	56412.1	10.1936	189.152
28	1995.26	56807.4	9629.02	57617.7	9.62037	191.002
29	1584.89	58044.4	9146.4	58760.6	8.9548	192.732
30	1258.93	59166.4	8818.52	59820	8.4773	194.482
31	1000	60301	8590.04	60909.7	8.1074	196.567
32	794.328	61360.9	8446.42	61939.5	7.83761	198.748
33	630.957	62530.1	8307.53	63079.6	7.56779	200.773
34	501.187	63594.9	8226.1	64124.7	7.37038	202.568
35	398.107	64633.7	8228.85	65155.4	7.25559	204.368
36	316.228	65707.9	8274.21	66226.9	7.17714	206.388
37	251.189	66789.3	8409.68	67316.7	7.17655	208.418
38	199.526	67881.8	8587.21	68422.8	7.20975	210.473
39	158.489	69021.7	8847.8	69586.5	7.30483	212.513
40	125.893	70196.1	9155.81	70790.7	7.43125	214.583
41	100	71434.1	9552.62	72070	7.61677	216.658
42	79.4328	72732.4	10059.3	73424.7	7.87439	218.663
43	63.0957	74134.7	10517.3	74877	8.07454	220.873
44	50.1187	75583.2	11064.8	76388.8	8.32847	222.968
45	39.8107	77141.6	11673.2	78019.8	8.60484	232.878
46	31.6228	78773.1	12329.7	79732.2	8.89582	235.118
47	25.1189	80533.2	13040.5	81582.2	9.19792	237.403
48	19.9526	82387.8	13790	83533.9	9.50206	240.178
49	15.8489	84369.4	14601.7	85623.6	9.81881	242.818
50	12.5893	86464.8	15459	87835.9	10.1368	245.613
51	10	88711.1	16371.9	90209.2	10.4564	248.413
52	7.94328	91026.9	17395.7	92674.2	10.8191	251.448
53	6.30957	93496	18404	95290.1	11.1359	254.614
54	5.01187	96142.1	19479.3	98095.6	11.4536	257.674
55	3.98107	98984.9	20634.1	101113	11.7751	260.859
56	3.16228	101890.286	21835.4	104204	12.0957	264.019
57	2.51189	105003	23175.9	107530	12.4466	267.284
58	1.99526	108151	24563.2	110906	12.7959	270.804
59	1.58489	111590	26112.5	114605	13.1704	274.104
60	1.25893	115135	27749.6	118432	13.5508	277.494
61	1	118932	29553.9	122549	13.955	283.879
62	0.794328	122943	31584.6	126935	14.408	287.824
63	0.630957	127134	33732.9	131533	14.8601	291.909
64	0.501187	131546	36089.6	136407	15.3416	296.484
65	0.398107	136266	38738	141666	15.8695	301.444
66	0.316228	141248	41624.4	147253	16.4197	306.685
67	0.251189	146428	44864.7	153147	17.0348	312.8
68	0.199526	151994	48514.3	159549	17.7023	319.5
69	0.158489	157810	52561.6	166332.811	18.4214	327.295
70	0.125893	164036	57124.5	173698	19.2003	336.46
71	0.1	170717	62270.8	181720	20.0399	347.15