File: data/plate_beam/Z_beam5_20241129.txt
Index	Frequency (Hz)	Z' (Ω)	-Z'' (Ω)	Z (Ω)	-Phase (°)	Time (s)
1	1000000	2423.61	6062.42	6528.92	68.2097	53.0448
2	794328.25	3415.42	7005.53	7793.75	64.0093	63.39
3	630957.375	4543.05	7948.58	9155.29	60.2497	68.7951
4	501187	5862.89	8986.93	10730.3	56.8804	71.5051
5	398107	7319.37	10050	12432.8	53.9343	80.0953
6	316228	8931.11	11094.5	14242.6	51.1658	82.2803
7	251189	10810.3	12247.6	16336.085	48.5669	88.9605
8	199526	12879.9	13296.2	18511.6	45.9113	91.1255
9	158489	15231.3	14369.6	20939.9	43.3325	93.5056
10	125893	17877.3	15303	23532.5	40.5637	95.1406
11	100000	20704	15994.4	26162.6	37.6871	96.8706
12	79432.8	23381.6	16639.5	28697.9	35.4375	102.231
13	63095.7	26375.8	16847.4	31297.3	32.5682	106.846
14	50118.7	29362.1	16872.7	33864.7	29.8834	114.091
15	39810.7	32367.1	16689.2	36416.5	27.2766	116.816
16	31622.8	35126.5	16419.9	38774.8	25.0538	125.351
17	25118.9	37803.6	16053.4	41071	23.0086	128.941
18	19952.6	40343.3	15602.8	43255.4	21.144	131.561
19	15848.9	42773.6	15081.3	45354.4	19.4219	139.691
20	12589.3	45065.3	14554.3	47357.3	17.8984	150.197
21	10000	47222.8	13975.5	49247.4	16.4861	158.517
22	7943.28	49308.3	13385.7	51092.9	15.188	164.832
23	6309.57	51282.3	12753.8	52844.4	13.966	171.417
24	5011.87	53064.1	12151.8	54437.7	12.8984	183.317
25	3981.07	54736.2	11552.5	55942	11.9178	185.422
26	3162.28	56322.5	10995.8	57385.8	11.0469	187.327
27	2511.89	57770.5	10515.4	58719.7	10.3161	189.152
28	1995.26	59192.3	9961.87	60024.7	9.55317	191.002
29	1584.89	60463.4	9561.03	61214.7	8.98573	192.732
30	1258.93	61687.7	9287.21	62382.9	8.5617	194.482
31	1000	62948.1	9011.91	63590	8.14734	196.567
32	794.328	64027.9	8850.18	64636.7	7.86977	198.748
33	630.957	65224.1	8671.86	65798	7.57334	200.773
34	501.187	66331.6	8607.3	66887.7	7.39349	202.568
35	398.107	67440.4	8597.61	67986.2	7.26513	204.368
36	316.228	68552.1	8658.08	69096.7	7.19831	206.388
37	251.189	69684.8	8777.91	70235.5	7.1795	208.418
38	199.526	70821.6	8965.06	71386.8	7.2145	210.473
39	158.489	72025.9	9214.17	72612.8	7.29017	212.513
40	125.893	73258.9	9486.2	73870.5	7.3781	214.583
41	100	74543.3	9888.17	75196.3	7.55617	216.658
42	79.4328	75886.1	10405.7	76596.2	7.80782	218.663
43	63.0957	77320.4	10916.8	78087.3	8.03644	220.873
44	50.1187	78838.2	11466.5	79667.7	8.27524	222.968
45	39.8107	80439.6	12109.2	81345.9	8.56088	232.878
46	31.6228	82131.7	12785.8	83120.9	8.84849	235.118
47	25.1189	83955.3	13522.8	85037.4	9.1501	237.403
48	19.9526	85876.1	14301.4	87058.8	9.45498	240.178
49	15.8489	87926.8	15139.4	89220.6	9.76948	242.818
50	12.5893	90102.1	16033.5	91517.6	10.0901	245.613
51	10	92424.7	16979.4	93971.4	10.4097	248.413
52	7.94328	94831.4	18053.7	96534.6	10.7788	251.448
53	6.30957	97391.1	19095.4	99245.4	11.0932	254.614
54	5.01187	100147.596	20210.3	102167	11.4094	257.674
55	3.98107	103092	21409.1	105292	11.7318	260.859
56	3.16228	106107	22652.1	108498	12.0508	264.019
57	2.51189	109337	24036.7	111948	12.3987	267.284
58	1.99526	112615	25470.8	115459	12.7445	270.804
59	1.58489	116188	27069.4	119300	13.1148	274.104
60	1.25893	119872	28763	123275	13.4929	277.494
61	1	123811	30627.8	127543	13.8946	283.879
62	0.794328	127966	32740.6	132088	14.3515	287.824
63	0.630957	132325	34944.4	136861.467	14.7929	291.909
64	0.501187	136885	37362.5	141892	15.2669	296.484
65	0.398107	141822	40087.2	147378.378	15.7834	301.444
66	0.316228	146982	43047.2	153156	16.3239	306.685
67	0.251189	152365	46365.3	159263	16.9252	312.8
68	0.199526	158115	50093.1	165861	17.5789	319.5
69	0.158489	164180	54244.5	172909	18.2834	327.295
70	0.125893	170672	58916.7	180555	19.0448	336.46
71	0.1	177577	64167.9	188815	19.8674	347.15