File: data/plate_beam/Z_beam3_20241129.txt
Index	Frequency (Hz)	Z' (Ω)	-Z'' (Ω)	Z (Ω)	-Phase (°)	Time (s)
1	1000000	4933.28	8335.17	9685.67	59.3803	53.0448
2	794328.25	6224.18	9431.22	11299.9	56.577	63.39
3	630957.375	7682.27	10618.7	13106.2	54.1155	68.7951
4	501187	9361.62	11944.2	15175.8	51.9114	71.5051
5	398107	11323.3	13320	17482.6	49.6323	80.0953
6	316228	13577.2	14754.6	20050.9	47.3796	82.2803
7	251189	16165.9	16238.4	22913.4	45.1282	88.9605
8	199526	18885.2	17719.8	25896.7	43.1765	91.1255
9	158489	22106.4	18939	29109.7	40.5873	93.5056
10	125893	25589.4	20240.7	32626.7	38.3432	95.1406
11	100000	29072.4	21255.1	36013.6	36.1709	96.8706
12	79432.8	33089	22055.295	39765.8	33.6852	102.231
13	63095.7	37142.8	22266.7	43305.8	30.9422	106.846
14	50118.7	41164.5	22233	46784.9	28.3735	114.091
15	39810.7	45228.9	21920.6	50261	25.8576	116.816
16	31622.8	48919.9	21496.7	53434.6	23.722	125.351
17	25118.9	52497.3	20908.1	56507.7	21.7159	128.941
18	19952.6	55863.6	20188.5	59399.7	19.8693	131.561
19	15848.9	58982	19401.8	62091.1	18.2083	139.691
20	12589.3	61904.4	18598.1	64637.8	16.722	150.197
21	10000	64676.2	17791.3	67078.6	15.3807	158.517
22	7943.28	67187.6	16957.8	69294.6	14.1653	164.832
23	6309.57	69618.4	16058.2	71446.4	12.9887	171.417
24	5011.87	71749.7	15481.8	73401	12.1763	183.317
25	3981.07	73854.8	14725.1	75308.4	11.2757	185.422
26	3162.28	75788.7	14086.2	77086.6	10.5289	187.327
27	2511.89	77660.9	13492	78824.2	9.85564	189.152
28	1995.26	79407.2	13013	80466.4	9.30676	191.002
29	1584.89	81101.6	12661.3	82084	8.8732	192.732
30	1258.93	82731.3	12336.6	83646	8.48126	194.482
31	1000	84412.1	12132.3	85279.5	8.17898	196.567
32	794.328	86045.3	11815.3	86852.7	7.81868	198.748
33	630.957	87602.5	11752	88387.3	7.64068	200.773
34	501.187	89168.1	11751.3	89939.1	7.50763	202.568
35	398.107	90748.5	11834.1	91516.8	7.42975	204.368
36	316.228	92340.1	11994.5	93115.9	7.40096	206.388
37	251.189	93954.3	12221.9	94745.9	7.4116	208.418
38	199.526	95621.4	12553	96441.8	7.47892	210.473
39	158.489	97334.8	12928.5	98189.7	7.566	212.513
40	125.893	99099.3	13391.5	100000	7.69586	214.583
41	100	100978	13919.7	101933	7.84867	216.658
42	79.4328	102920	14596.2	103950	8.07191	218.663
43	63.0957	105007	15224.4	106105.286	8.24948	220.873
44	50.1187	107174.589	15890.1	108346	8.43344	222.968
45	39.8107	109495	16601.4	110747	8.62141	232.878
46	31.6228	111906.786	17344.1	113243	8.81001	235.118
47	25.1189	114475	18113.5	115899	8.99139	237.403
48	19.9526	117152	18899.5	118666	9.16428	240.178
49	15.8489	119972	19694.8	121578	9.3226	242.818
50	12.5893	122914	20509.9	124614	9.47327	245.613
51	10	126001	21312.6	127790	9.60052	248.413
52	7.94328	129138	22268.9	131044	9.78398	251.448
53	6.30957	132432	23045.8	134422	9.87174	254.614
54	5.01187	135882	23826.6	137955	9.94555	257.674
55	3.98107	139461	24625.9	141618	10.014	260.859
56	3.16228	143071	25400.4	145309	10.0672	264.019
57	2.51189	146815	26204.4	149136	10.1199	267.284
58	1.99526	150498	27039.6	152907	10.1856	270.804
59	1.58489	154382	27931.9	156888.313	10.2554	274.104
60	1.25893	158207	28854.3	160817	10.3362	277.494
61	1	162123	29902.7	164858	10.4504	283.879
62	0.794328	166017	31302.8	168942	10.6779	287.824
63	0.630957	169902	32714.3	173023	10.8988	291.909
64	0.501187	173743	34437.7	177123	11.2113	296.484
65	0.398107	177643	36660.2	181387	11.6604	301.444
66	0.316228	181552.992	39403.9	185780	12.2454	306.685
67	0.251189	185434	42938.4	190340	13.0374	312.8
68	0.199526	189501	47355.7	195328.463	14.0307	319.5
69	0.158489	193841	52784.8	200898.975	15.2329	327.295
70	0.125893	198613	59306.2	207279	16.6257	336.46
71	0.1	204051	67039.4	214782	18.1875	347.15