File: data/plate_beam/Z_beam5_20241219.txt
Index	Frequency (Hz)	Z' (Ω)	-Z'' (Ω)	Z (Ω)	-Phase (°)	Time (s)
1	1000000	2416.27	6445.89	6883.89	69.4513	53.0448
2	794328.25	3405.86	7463.99	8204.33	65.4725	63.39
3	630957.375	4569.3	8575.04	9716.47	61.9486	68.7951
4	501187	5890.47	9786.33	11422.3	58.9559	71.5051
5	398107	7491.77	11013.8	13320.3	55.7759	80.0953
6	316228	9241.56	12352.8	15427.2	53.1985	82.2803
7	251189	11251	13763.9	17777.2	50.7365	88.9605
8	199526	13573.9	15208.7	20385.1	48.2509	91.1255
9	158489	16259.8	16590.8	23230	45.5773	93.5056
10	125893	19116.4	17961.4	26230.7	43.2157	95.1406
11	100000	22462.6	19059.5	29459	40.3146	96.8706
12	79432.8	25688.2	20140.6	32642.4	38.0979	102.231
13	63095.7	29400.3	20657.1	35931.8	35.0925	106.846
14	50118.7	33123.3	20963.4	39199.8	32.3293	114.091
15	39810.7	36967	20981.4	42506.2	29.5779	116.816
16	31622.8	40523.7	20843.6	45570.1	27.2193	125.351
17	25118.9	44017.5	20527.5	48568.6	25.0019	128.941
18	19952.6	47366.6	20064.9	51441.2	22.9579	131.561
19	15848.9	50556.2	19507.2	54189.1	21.0992	139.691
20	12589.3	53579.3	18881.7	56808.9	19.4128	150.197
21	10000	56456.9	18215.9	59322.9	17.8823	158.517
22	7943.28	59201.1	17453.2	61720.2	16.4262	164.832
23	6309.57	61760.5	16645.3	63964.3	15.0836	171.417
24	5011.87	64176.7	15904.8	66118.1	13.9191	183.317
25	3981.07	66426.1	15082.1	68116.8	12.7922	185.422
26	3162.28	68586.3	14375.2	70076.6	11.8374	187.327
27	2511.89	70429.3	13658.7	71741.5	10.9754	189.152
28	1995.26	72262.5	13028.5	73427.6	10.2203	191.002
29	1584.89	73974.8	12469.5	75018.4	9.56808	192.732
30	1258.93	75590.1	12010.604	76538.351	9.02832	194.482
31	1000	77136	11627.5	78007.4	8.57223	196.567
32	794.328	78669.5	11148.2	79455.5	8.06562	198.748
33	630.957	80114.2	10869.4	80848.2	7.72634	200.773
34	501.187	81548.5	10715.5	82249.5	7.48581	202.568
35	398.107	82946.4	10650.4	83627.3	7.31678	204.368
36	316.228	84336.1	10667.3	85008.1	7.20882	206.388
37	251.189	85743.9	10765.4	86417.1	7.15619	208.418
38	199.526	87150.9	10939.8	87834.8	7.15477	210.473
39	158.489	88585.1	11193.2	89289.4	7.20147	212.513
40	125.893	90078.2	11541.7	90814.6	7.3015	214.583
41	100	91628.8	11974.1	92407.9	7.44525	216.658
42	79.4328	93235.5	12554.6	94077	7.669	218.663
43	63.0957	94948.6	13124.4	95851.4	7.86994	220.873
44	50.1187	96741.9	13761.2	97715.7	8.09581	222.968
45	39.8107	98662.2	14486.4	99720	8.35295	232.878
46	31.6228	100676	15270.8	101828	8.625	235.118
47	25.1189	102845	16135.2	104103	8.91636	237.403
48	19.9526	105126	17050.9	106499	9.21287	240.178
49	15.8489	107567	18040.7	109069	9.52078	242.818
50	12.5893	110156	19101.5	111800	9.83746	245.613
51	10	112924	20222	114721	10.1527	248.413
52	7.94328	115775	21519	117757	10.5294	251.448
53	6.30957	118827	22756.2	120987	10.8413	254.614
54	5.01187	122117	24071.8	124467	11.1512	257.674
55	3.98107	125624	25488.1	128184	11.4691	260.859
56	3.16228	129239	26960.2	132021	11.7833	264.019
57	2.51189	133095	28587.9	136131	12.1225	267.284
58	1.99526	137005.98	30269.7	140310	12.4586	270.804
59	1.58489	141275	32157.1	144889	12.8232	274.104
60	1.25893	145663.234	34128.2	149607.866	13.1863	277.494
61	1	150362	36309.4	154684	13.5759	283.879
62	0.794328	155273	38896.2	160071	14.0633	287.824
63	0.630957	160487	41443.2	165751	14.4794	291.909
64	0.501187	165952	44208.7	171740	14.9168	296.484
65	0.398107	171846	47326	178244	15.3974	301.444
66	0.316228	178023.888	50707.3	185105	15.8988	306.685
67	0.251189	184467.831	54476.5	192343.619	16.4528	312.8
68	0.199526	191327	58697.9	200128	17.0557	319.5
69	0.158489	198565	63385.3	208437	17.7039	327.295
70	0.125893	206262	68632.2	217380	18.4045	336.46
71	0.1	214458	74547.5	227045	19.1679	347.15