File: data/plate_beam/Z_beam2_20241219.txt
Index	Frequency (Hz)	Z' (Ω)	-Z'' (Ω)	Z (Ω)	-Phase (°)	Time (s)
1	1000000	5339.26	8384.99	9940.61	57.5125	53.0448
2	794328.25	6640.85	9507.93	11597.5	55.0675	63.39
3	630957.375	8093.15	10736.8	13445.4	52.9919	68.7951
4	501187	9862.43	12093.8	15605.4	50.803	71.5051
5	398107	11865.6	13451.7	17937.1	48.5847	80.0953
6	316228	14224.7	14970.7	20651	46.4638	82.2803
7	251189	16879	16391.8	23528.5	44.161	88.9605
8	199526	19755.4	17845.9	26622.4	42.0929	91.1255
9	158489	23100	19182.5	30026.3	39.7066	93.5056
10	125893	26589	20268	33433	37.3172	95.1406
11	100000	30428	21051.4	37000.4	34.6771	96.8706
12	79432.8	34186	21569	40421.6	32.2491	102.231
13	63095.7	38158.5	21500.3	43798.8	29.399	106.846
14	50118.7	42012.8	21187.6	47053.1	26.7624	114.091
15	39810.7	45778.8	20660.5	50225.1	24.2902	116.816
16	31622.8	49113.3	20076.1	53058.1	22.2334	125.351
17	25118.9	52293	19441.2	55790	20.3939	128.941
18	19952.6	55236.3	18780.8	58341.8	18.7785	131.561
19	15848.9	58050.6	18147.1	60821	17.3597	139.691
20	12589.3	60656.2	17550.1	63144.2	16.1372	150.197
21	10000	63220.6	17004.9	65467.7	15.0549	158.517
22	7943.28	65730.8	16478.7	67765	14.074	164.832
23	6309.57	68081.6	15873.8	69907.7	13.1245	171.417
24	5011.87	70334.4	15295.5	71978.3	12.269	183.317
25	3981.07	72531.5	14857	74037.5	11.5761	185.422
26	3162.28	74628.2	14268.8	75980	10.8243	187.327
27	2511.89	76605.7	13694.2	77820.1	10.1353	189.152
28	1995.26	78451.5	13211.3	79556.2	9.559	191.002
29	1584.89	80215.5	12777	81226.7	9.05023	192.732
30	1258.93	81899.7	12466.5	82843.1	8.65496	194.482
31	1000	83526.3	12167.4	84407.9	8.28806	196.567
32	794.328	85151.3	11891.5	85977.6	7.95001	198.748
33	630.957	86716.1	11736.7	87506.8	7.70792	200.773
34	501.187	88271.5	11763.1	89051.9	7.59051	202.568
35	398.107	89837.5	11849.1	90615.6	7.51365	204.368
36	316.228	91434.4	12021.8	92221.3	7.49032	206.388
37	251.189	93056.6	12277.7	93863.1	7.51608	208.418
38	199.526	94719.5	12610.9	95555.3	7.58372	210.473
39	158.489	96440.5	13000.9	97312.8	7.6776	212.513
40	125.893	98242.8	13478.2	99163.1	7.8118	214.583
41	100	100139	14001.8	101113	7.95971	216.658
42	79.4328	102110	14673.8	103159	8.17774	218.663
43	63.0957	104222	15295.1	105339	8.34884	220.873
44	50.1187	106429	15942.2	107617	8.51906	222.968
45	39.8107	108781	16630.3	110044	8.69204	232.878
46	31.6228	111220	17326.3	112562	8.85458	235.118
47	25.1189	113816	18041.59	115237	9.00731	237.403
48	19.9526	116517	18736.4	118013	9.13521	240.178
49	15.8489	119345	19451.1	120919	9.25683	242.818
50	12.5893	122288	20141.5	123936	9.35291	245.613
51	10	125357	20820.73	127074	9.43025	248.413
52	7.94328	128460	21618.3	130266	9.55274	251.448
53	6.30957	131684	22222.4	133546	9.57875	254.614
54	5.01187	135038.219	22818.8	136953	9.59124	257.674
55	3.98107	138498	23400.4	140461	9.59002	260.859
56	3.16228	141944	23966.5	143953	9.58369	264.019
57	2.51189	145494.126	24541.9	147549	9.57452	267.284
58	1.99526	148972	25103.1	151072	9.56499	270.804
59	1.58489	152605	25714.9	154756	9.56485	274.104
60	1.25893	156160	26351.9	158368	9.57841	277.494
61	1	159764	27070.5	162041	9.6169	283.879
62	0.794328	163322	28117.6	165725	9.7683	287.824
63	0.630957	166835	29119	169357	9.90055	291.909
64	0.501187	170256	30395.9	172948	10.1224	296.484
65	0.398107	173659.595	32102.7	176602	10.4735	301.444
66	0.316228	176984	34284	180274	10.9631	306.685
67	0.251189	180149	37247	183959	11.6817	312.8
68	0.199526	183405	41095.6	187952	12.6297	319.5
69	0.158489	186782	45972.2	192357	13.8272	327.295
70	0.125893	190424	52059.2	197412	15.2902	336.46
71	0.1	194512	59498.5	203408	17.0082	347.15