File: data/plate_beam/Z_plate1_20241120.txt
Index	Frequency (Hz)	Z' (Ω)	-Z'' (Ω)	Z (Ω)	-Phase (°)	Time (s)
1	1000000	558.514	175.941	585.571	17.4853	53.0448
2	794328.25	591.107	171.81	615.569	16.2069	63.39
3	630957.375	621.064	166.398	642.968	14.9986	68.7951
4	501187	648.68	159.618	668.029	13.8239	71.5051
5	398107	673.698	152.129	690.661	12.7247	80.0953
6	316228	696.805	144.44	711.618	11.7109	82.2803
7	251189	718.079	136.863	731.005	10.7909	88.9605
8	199526	737.74	129.256	748.977	9.93766	91.1255
9	158489	755.883	121.768	765.628	9.1514	93.5056
10	125893	772.739	114.568	781.186	8.43337	95.1406
11	100000	788.468	107.5894	795.774	7.77024	96.8706
12	79432.8	802.985	99.4452	809.12	7.05981	102.231
13	63095.7	816.652	94.2136	822.069	6.58087	106.846
14	50118.7	829.264	89.0857	834.035	6.13162	114.091
15	39810.7	841.086	84.2837	845.298	5.7224	116.816
16	31622.8	851.839	79.933	855.581	5.3607	125.351
17	25118.9	861.864	76.0852	865.216	5.04498	128.941
18	19952.6	871.236	72.8855	874.279	4.78209	131.561
19	15848.9	880.139	70.4415	882.953	4.57589	139.691
20	12589.3	888.822	68.7934	891.481	4.42578	150.197
21	10000	897.286	67.8866	899.85	4.32663	158.517
22	7943.28	905.943	67.7461	908.473	4.2766	164.832
23	6309.57	914.683	68.1409	917.218	4.26048	171.417
24	5011.87	923.509	69.2205	926.1	4.28652	183.317
25	3981.07	932.809	70.8484	935.495	4.34337	185.422
26	3162.28	942.516	72.7134	945.316	4.41153	187.327
27	2511.89	952.633	74.9935	955.58	4.50118	189.152
28	1995.26	963.282	77.4341	966.389	4.59588	191.002
29	1584.89	974.375	80.129	977.664	4.70122	192.732
30	1258.93	985.926	82.8464	989.401	4.80322	194.482
31	1000	997.787	85.7807	1001.47	4.91369	196.567
32	794.328	1010.2	88.4182	1014.06	5.00211	198.748
33	630.957	1022.79	91.4599	1026.87	5.10993	200.773
34	501.187	1035.41	94.7237	1039.74	5.22709	202.568
35	398.107	1048.18	98.2686	1052.77	5.35594	204.368
36	316.228	1060.93	102.393	1065.86	5.51268	206.388
37	251.189	1073.7	107.338	1079.06	5.70889	208.418
38	199.526	1086.49	113.452	1092.4	5.96129	210.473
39	158.489	1099.38	121.156	1106.03	6.28886	212.513
40	125.893	1112.51	130.98	1120.2	6.7147	214.583
41	100	1126.26	143.288	1135.34	7.25048	216.658
42	79.4328	1140.86	159.731	1151.98	7.97015	218.663
43	63.0957	1157.4	178.725	1171.11	8.77828	220.873
44	50.1187	1176.17	201.375	1193.29	9.71555	222.968
45	39.8107	1198.24	228.728	1219.87	10.807	232.878
46	31.6228	1223.29	260.303	1250.68	12.0127	235.118
47	25.1189	1251.95	297.059	1286.71	13.3481	237.403
48	19.9526	1285.39	338.61	1329.24	14.7581	240.178
49	15.8489	1323.17	386.146	1378.36	16.269	242.818
50	12.5893	1366.44	439.903	1435.51	17.8451	245.613
51	10	1417.8	501.051	1503.73	19.4635	248.413
52	7.94328	1473.95	570.376	1580.46	21.155	251.448
53	6.30957	1538.79	645.738	1668.78	22.7649	254.614
54	5.01187	1610.88	730.661	1768.84	24.398	257.674
55	3.98107	1695.67	827.015	1886.6	25.9995	260.859
56	3.16228	1786.64	931.431	2014.86	27.5344	264.019
57	2.51189	1889.95	1049.97	2162.02	29.0546	267.284
58	1.99526	2001.32	1175.57	2321.05	30.4299	270.804
59	1.58489	2129.59	1321	2506.03	31.8115	274.104
60	1.25893	2267.99	1477.5	2706.81	33.0825	277.494
61	1	2420.39	1653.88	2931.49	34.3453	283.879
62	0.794328	2598.89	1837	3182.58	35.2543	287.824
63	0.630957	2772.37	2058.03	3452.75	36.5879	291.909
64	0.501187	2956.66	2308.15	3750.92	37.9779	296.484
65	0.398107	3154.8	2600.44	4088.41	39.498	301.444
66	0.316228	3369.42	2941.98	4473.06	41.1256	306.685
67	0.251189	3593.03	3331.34	4899.77	42.8357	312.8
68	0.199526	3837.96	3794.42	5397	44.6731	319.5
69	0.158489	4114.14	4343.9	5982.95	46.556	327.295
70	0.125893	4429.66	4999.39	6679.51	48.4577	336.46
71	0.1	4790.99	5779.43	7507.02	50.3422	347.15