File: data/plate_beam/Z_plate1_20241129.txt
Index	Frequency (Hz)	Z' (Ω)	-Z'' (Ω)	Z (Ω)	-Phase (°)	Time (s)
1	1000000	379.092	117.898	435.359	15.7122	53.0448
2	794328.25	403.833	111.565	447.948	14.4218	63.39
3	630957.375	428.049	105.676	460.343	13.2712	68.7951
4	501187	452.22	100.428	473.005	12.2584	71.5051
5	398107	475.958	96.7175	485.685	11.4865	80.0953
6	316228	489.521	93.6553	498.399	10.831	82.2803
7	251189	502.702	90.3901	510.764	10.1933	88.9605
8	199526	515.445	87.5134	522.822	9.63592	91.1255
9	158489	528.044	84.5967	534.777	9.10189	93.5056
10	125893	540.349	81.5371	546.467	8.58103	95.1406
11	100000	552.052	78.8963	557.661	8.13333	96.8706
12	79432.8	563.477	76.6898	568.672	7.75039	102.231
13	63095.7	574.611	74.0225	579.359	7.34053	106.846
14	50118.7	585.189	71.2096	589.506	6.93802	114.091
15	39810.7	595.15	68.2972	599.056	6.54641	116.816
16	31622.8	604.474	65.4697	608.009	6.18153	125.351
17	25118.9	613.287	62.7915	616.493	5.84587	128.941
18	19952.6	621.584	60.3985	624.512	5.54994	131.561
19	15848.9	629.493	58.392	632.196	5.29961	139.691
20	12589.3	637.047	56.8605	639.58	5.10049	150.197
21	10000	644.447	55.7479	646.853	4.94406	158.517
22	7943.28	651.74	55.1157	654.066	4.83384	164.832
23	6309.57	659.011	54.7668	661.283	4.75062	171.417
24	5011.87	666.365	54.8657	668.62	4.70687	183.317
25	3981.07	673.837	55.2363	676.097	4.68621	185.422
26	3162.28	681.443	55.8667	683.729	4.6868	187.327
27	2511.89	689.234	56.6588	691.559	4.69946	189.152
28	1995.26	697.247	57.6061	699.623	4.72302	191.002
29	1584.89	705.43	58.6667	707.865	4.75403	192.732
30	1258.93	713.703	59.9124	716.213	4.7985	194.482
31	1000	722.301	61.2463	724.893	4.8467	196.567
32	794.328	730.906	62.429	733.567	4.88197	198.748
33	630.957	739.654	64.1073	742.427	4.95356	200.773
34	501.187	748.101	65.9429	751.002	5.03743	202.568
35	398.107	756.702	68.1847	759.767	5.14889	204.368
36	316.228	765.308	70.8871	768.584	5.29195	206.388
37	251.189	773.828	74.3349	777.39	5.48706	208.418
38	199.526	782.412	78.7012	786.36	5.74395	210.473
39	158.489	790.992	84.2681	795.468	6.08105	212.513
40	125.893	799.818	91.3783	805.021	6.51772	214.583
41	100	809.067	100.357	815.268	7.07091	216.658
42	79.4328	818.789	112.298	826.454	7.80945	218.663
43	63.0957	829.627	126.061	839.15	8.63992	220.873
44	50.1187	841.676	142.536	853.66	9.61171	222.968
45	39.8107	855.47	162.575	870.781	10.7603	232.878
46	31.6228	870.868	185.95	890.499	12.0529	235.118
47	25.1189	888.813	213.783	914.162	13.5243	237.403
48	19.9526	909.411	245.871	942.062	15.1289	240.178
49	15.8489	932.639	283.526	974.783	16.9095	242.818
50	12.5893	958.937	327.12	1013.2	18.8359	245.613
51	10	989.335	377.917	1059.06	20.9064	248.413
52	7.94328	1022.81	436.696	1112.13	23.1205	251.448
53	6.30957	1061.03	503.292	1174.34	25.3771	254.614
54	5.01187	1105.63	581.184	1249.07	27.7291	257.674
55	3.98107	1157.7	671.845	1338.52	30.1278	260.859
56	3.16228	1215.05	774.518	1440.91	32.5149	264.019
57	2.51189	1281.1	894.381	1562.41	34.9203	267.284
58	1.99526	1354.32	1027.02	1699.69	37.174	270.804
59	1.58489	1441.64	1185.72	1866.62	39.4367	274.104
60	1.25893	1539.59	1364.28	2057.09	41.545	277.494
61	1	1653.74	1573.69	2282.84	43.5791	283.879
62	0.794328	1781.27	1821.88	2547.97	45.6457	287.824
63	0.630957	1931.06	2101.52	2854.02	47.4205	291.909
64	0.501187	2115.31	2414.2	3209.81	48.7753	296.484
65	0.398107	2313.77	2800.28	3632.51	50.4344	301.444
66	0.316228	2543.86	3255.22	4131.3	51.9934	306.685
67	0.251189	2805.72	3775.01	4703.48	53.379	312.8
68	0.199526	3110.05	4385.45	5376.3	54.6567	319.5
69	0.158489	3462.24	5098.71	6163.11	55.8218	327.295
70	0.125893	3871.72	5937.38	7088.21	56.892	336.46
71	0.1	4348.7	6925.91	8177.98	57.8757	347.15