File: data/plate_beam/Z_plate1_20241212.txt
Index	Frequency (Hz)	Z' (Ω)	-Z'' (Ω)	Z (Ω)	-Phase (°)	Time (s)
1	1000000	473.822	162.054	500.769	18.8814	53.0448
2	794328.25	500.721	154.007	523.87	17.0963	63.39
3	630957.375	524.247	146.982	544.462	15.6618	68.7951
4	501187	546.158	140.054	563.829	14.3828	71.5051
5	398107	566.079	133.561	581.622	13.2756	80.0953
6	316228	584.982	127.598	598.736	12.3048	82.2803
7	251189	602.862	121.809	615.045	11.4229	88.9605
8	199526	619.818	116.519	630.676	10.6467	91.1255
9	158489	636.25	111.834	646.004	9.96906	93.5056
10	125893	651.774	107.061	660.508	9.32815	95.1406
11	100000	666.805	102.654	674.66	8.75194	96.8706
12	79432.8	680.931	99.4791	688.159	8.31171	102.231
13	63095.7	694.94	95.6084	701.486	7.83346	106.846
14	50118.7	708.205	91.724	714.12	7.37964	114.091
15	39810.7	720.833	87.8646	726.169	6.94967	116.816
16	31622.8	732.714	84.2303	737.539	6.55775	125.351
17	25118.9	744.036	80.8027	748.411	6.19806	128.941
18	19952.6	754.782	77.7274	758.774	5.87959	131.561
19	15848.9	764.993	75.0852	768.669	5.60571	139.691
20	12589.3	774.794	72.9162	778.218	5.3763	150.197
21	10000	784.335	71.2937	787.568	5.19374	158.517
22	7943.28	793.599	70.2598	796.703	5.05939	164.832
23	6309.57	802.878	69.5365	805.884	4.94998	171.417
24	5011.87	812.089	69.4499	815.053	4.88805	183.317
25	3981.07	821.424	69.7459	824.379	4.85326	185.422
26	3162.28	830.972	70.385	833.948	4.84151	187.327
27	2511.89	840.687	71.2911	843.705	4.84714	189.152
28	1995.26	850.642	72.5884	853.733	4.87745	191.002
29	1584.89	860.877	73.9713	864.049	4.91111	192.732
30	1258.93	871.428	75.5703	874.698	4.95629	194.482
31	1000	882.075	77.2165	885.448	5.0029	196.567
32	794.328	893.023	78.9731	896.508	5.05372	198.748
33	630.957	904.105	80.9979	907.726	5.1194	200.773
34	501.187	915.16	83.4004	918.952	5.2071	202.568
35	398.107	926.323	86.1027	930.316	5.31045	204.368
36	316.228	937.554	89.261	941.793	5.43853	206.388
37	251.189	948.746	93.1274	953.306	5.60611	208.418
38	199.526	960.01	97.9755	964.997	5.82724	210.473
39	158.489	971.32	104.067	976.879	6.11533	212.513
40	125.893	982.796	111.791	989.134	6.4894	214.583
41	100	994.805	121.44	1002.19	6.95989	216.658
42	79.4328	1007.21	134.366	1016.13	7.59869	218.663
43	63.0957	1020.83	149.276	1031.68	8.31942	220.873
44	50.1187	1035.71	167.069	1049.09	9.16341	222.968
45	39.8107	1052.53	188.863	1069.34	10.1728	232.878
46	31.6228	1071.11	214.434	1092.36	11.3209	235.118
47	25.1189	1092.53	244.913	1119.65	12.6351	237.403
48	19.9526	1117.1	280.194	1151.7	14.0806	240.178
49	15.8489	1144.77	321.631	1189.09	15.6931	242.818
50	12.5893	1175.95	369.539	1232.65	17.4451	245.613
51	10	1211.85	425.582	1284.41	19.3504	248.413
52	7.94328	1251.3	490.537	1344.01	21.4063	251.448
53	6.30957	1296.23	563.853	1413.55	23.5089	254.614
54	5.01187	1348.54	649.442	1496.78	25.7149	257.674
55	3.98107	1409.16	749.819	1596.23	28.0177	260.859
56	3.16228	1475.53	862.277	1709.01	30.3013	264.019
57	2.51189	1551.69	994.259	1842.9	32.6501	267.284
58	1.99526	1635.45	1140.22	1993.69	34.884	270.804
59	1.58489	1734.4	1314.78	2176.42	37.1644	274.104
60	1.25893	1844.93	1511.11	2384.79	39.3197	277.494
61	1	1973.13	1741.07	2631.45	41.4248	283.879
62	0.794328	2112.6	2015.52	2919.83	43.6529	287.824
63	0.630957	2298.08	2306.16	3255.69	45.1006	291.909
64	0.501187	2483.81	2661.91	3640.76	46.9823	296.484
65	0.398107	2700.72	3084.88	4100.05	48.7989	301.444
66	0.316228	2948.83	3581.45	4639.22	50.5332	306.685
67	0.251189	3228.83	4150.91	5258.84	52.122	312.8
68	0.199526	3552.48	4822.49	5989.7	53.6228	319.5
69	0.158489	3924.93	5610.67	6847.24	55.0254	327.295
70	0.125893	4356.6	6540.71	7858.8	56.3334	336.46
71	0.1	4860.15	7642.41	9056.9	57.5459	347.15