File: data/plate_beam/Z_plate2_20241219.txt
Index	Frequency (Hz)	Z' (Ω)	-Z'' (Ω)	Z (Ω)	-Phase (°)	Time (s)
1	1000000	825.031	273.104	869.058	18.3157	53.0448
2	794328.25	874.691	266.039	914.254	16.9173	63.39
3	630957.375	921.534	253.734	955.827	15.3943	68.7951
4	501187	963.185	238.745	992.332	13.9213	71.5051
5	398107	1000.19	223.673	1024.9	12.6056	80.0953
6	316228	1032.84	208.146	1053.6	11.3941	82.2803
7	251189	1062.34	193.124	1079.75	10.3034	88.9605
8	199526	1088.54	178.9	1103.14	9.33307	91.1255
9	158489	1112.22	165.479	1124.46	8.46256	93.5056
10	125893	1133.53	152.979	1143.81	7.6861	95.1406
11	100000	1152.89	141.926	1161.59	7.01804	96.8706
12	79432.8	1170.55	129.324	1177.67	6.30457	102.231
13	63095.7	1187	122.018	1193.25	5.86914	106.846
14	50118.7	1202.16	115.684	1207.72	5.49663	114.091
15	39810.7	1216.51	110.412	1221.51	5.18603	116.816
16	31622.8	1230.02	106.138	1234.59	4.93184	125.351
17	25118.9	1243.2	102.814	1247.45	4.72767	128.941
18	19952.6	1256.19	100.373	1260.2	4.56839	131.561
19	15848.9	1269.14	98.8338	1272.98	4.4529	139.691
20	12589.3	1282.12	98.0043	1285.86	4.37115	150.197
21	10000	1295.36	97.8319	1299.05	4.31906	158.517
22	7943.28	1308.8	98.063	1312.47	4.28491	164.832
23	6309.57	1322.7	98.6025	1326.37	4.26332	171.417
24	5011.87	1336.91	99.388	1340.6	4.25165	183.317
25	3981.07	1351.63	100.168	1355.34	4.23839	185.422
26	3162.28	1366.49	100.969	1370.22	4.22585	187.327
27	2511.89	1381.94	101.51	1385.66	4.20108	189.152
28	1995.26	1397.65	101.854	1401.35	4.16808	191.002
29	1584.89	1413.45	101.585	1417.09	4.11081	192.732
30	1258.93	1429.41	100.871	1432.96	4.03659	194.482
31	1000	1445.41	99.3571	1448.82	3.93232	196.567
32	794.328	1460.82	97.0984	1464.04	3.80278	198.748
33	630.957	1476.08	94.4968	1479.1	3.66302	200.773
34	501.187	1489.79	91.1595	1492.58	3.50154	202.568
35	398.107	1502.69	87.601	1505.24	3.33635	204.368
36	316.228	1514.36	84.0937	1516.69	3.17842	206.388
37	251.189	1524.61	81.0292	1526.76	3.04226	208.418
38	199.526	1533.4	78.9697	1535.43	2.94812	210.473
39	158.489	1540.9	78.4766	1542.9	2.91551	212.513
40	125.893	1547.4	80.0348	1549.47	2.96082	214.583
41	100	1553.42	84.0827	1555.69	3.09825	216.658
42	79.4328	1559.13	92.669	1561.88	3.40145	218.663
43	63.0957	1565.56	103.135	1568.95	3.76907	220.873
44	50.1187	1573.3	116.923	1577.64	4.25024	222.968
45	39.8107	1582.8	134.829	1588.53	4.86893	232.878
46	31.6228	1594.25	156.557	1601.91	5.60855	235.118
47	25.1189	1608.63	182.876	1618.99	6.48576	237.403
48	19.9526	1626.34	213.062	1640.23	7.46367	240.178
49	15.8489	1647.08	248.915	1665.78	8.59381	242.818
50	12.5893	1671.49	290.347	1696.52	9.85428	245.613
51	10	1700.68	338.257	1733.99	11.2491	248.413
52	7.94328	1733.41	395.199	1777.89	12.8433	251.448
53	6.30957	1771.23	457.685	1829.41	14.4882	254.614
54	5.01187	1816.68	529.838	1892.36	16.2594	257.674
55	3.98107	1870.37	613.143	1968.31	18.1501	260.859
56	3.16228	1927.8	707.028	2053.36	20.1407	264.019
57	2.51189	1993.34	816.632	2154.14	22.2779	267.284
58	1.99526	2064.6	937.55	2267.51	24.4231	270.804
59	1.58489	2147.54	1080.93	2404.23	26.7177	274.104
60	1.25893	2238.03	1240.91	2559.03	29.0068	277.494
61	1	2341.3	1427.58	2742.2	31.3722	283.879
62	0.794328	2452.94	1649.27	2955.85	33.9155	287.824
63	0.630957	2594.41	1878.88	3203.3	35.9121	291.909
64	0.501187	2734.52	2163.11	3486.64	38.3454	296.484
65	0.398107	2894.07	2498.83	3823.58	40.8084	301.444
66	0.316228	3071.67	2889.81	4217.36	43.2527	306.685
67	0.251189	3268.47	3338.52	4672.11	45.6075	312.8
68	0.199526	3492.76	3866.76	5210.68	47.9092	319.5
69	0.158489	3748.88	4485.74	5846.02	50.1134	327.295
70	0.125893	4046.97	5216.29	6602.1	52.1945	336.46
71	0.1	4398.12	6079.99	7503.98	54.1189	347.15