File: data/plate_beam/Z_plate3_20241129.txt
Index	Frequency (Hz)	Z' (Ω)	-Z'' (Ω)	Z (Ω)	-Phase (°)	Time (s)
1	1000000	704.688	210.395	735.426	16.6238	53.0448
2	794328.25	743.48	202.429	770.546	15.2308	63.39
3	630957.375	778.542	191.644	801.782	13.8289	68.7951
4	501187	809.615	179.295	829.23	12.4871	71.5051
5	398107	836.442	166.759	852.903	11.2751	80.0953
6	316228	860.295	154.629	874.081	10.1895	82.2803
7	251189	881.269	143.213	892.83	9.23033	88.9605
8	199526	900.238	132.843	909.986	8.39426	91.1255
9	158489	917.527	123.461	925.796	7.66363	93.5056
10	125893	933.227	114.896	940.273	7.01873	95.1406
11	100000	947.74	107.382	953.804	6.46421	96.8706
12	79432.8	961.411	99.3553	966.532	5.90018	102.231
13	63095.7	974.327	94.1673	978.867	5.52041	106.846
14	50118.7	986.453	89.556	990.51	5.18742	114.091
15	39810.7	997.851	85.393	1001.5	4.89128	116.816
16	31622.8	1008.68	81.7831	1011.99	4.63538	125.351
17	25118.9	1019.1	78.7203	1022.14	4.41703	128.941
18	19952.6	1029.19	76.2385	1032.01	4.23651	131.561
19	15848.9	1039.03	74.3218	1041.69	4.09139	139.691
20	12589.3	1048.78	72.9648	1051.32	3.97972	150.197
21	10000	1058.51	72.0394	1060.96	3.89339	158.517
22	7943.28	1068.29	71.6543	1070.69	3.83731	164.832
23	6309.57	1078.16	71.3886	1080.52	3.78822	171.417
24	5011.87	1088.18	71.4799	1090.52	3.75822	183.317
25	3981.07	1098.46	71.6636	1100.8	3.73268	185.422
26	3162.28	1109.01	71.9028	1111.34	3.70958	187.327
27	2511.89	1119.69	72.0822	1122.01	3.68343	189.152
28	1995.26	1130.64	72.1203	1132.94	3.64979	191.002
29	1584.89	1141.45	72.0175	1143.72	3.61018	192.732
30	1258.93	1152.54	71.6271	1154.77	3.55619	194.482
31	1000	1163.32	70.8064	1165.47	3.48305	196.567
32	794.328	1173.93	69.676	1175.99	3.39668	198.748
33	630.957	1184.21	68.4124	1186.18	3.30634	200.773
34	501.187	1193.77	67.1624	1195.66	3.2201	202.568
35	398.107	1202.66	65.9272	1204.47	3.13768	204.368
36	316.228	1210.83	65.0802	1212.58	3.0766	206.388
37	251.189	1218.19	64.9455	1219.92	3.05172	208.418
38	199.526	1224.9	65.8228	1226.67	3.07597	210.473
39	158.489	1230.98	68.1763	1232.87	3.17001	212.513
40	125.893	1236.64	72.306	1238.75	3.34627	214.583
41	100	1242.42	78.6187	1244.9	3.62078	216.658
42	79.4328	1248.25	88.557	1251.39	4.05804	218.663
43	63.0957	1254.95	100.303	1258.95	4.56971	220.873
44	50.1187	1262.78	114.951	1268.01	5.2013	222.968
45	39.8107	1272.26	133.501	1279.25	5.99023	232.878
46	31.6228	1283.4	155.653	1292.8	6.91516	235.118
47	25.1189	1297.16	182.456	1309.93	8.00662	237.403
48	19.9526	1314.03	213.658	1331.29	9.23531	240.178
49	15.8489	1333.77	250.612	1357.11	10.6417	242.818
50	12.5893	1356.77	293.592	1388.17	12.21	245.613
51	10	1384.77	343.622	1426.77	13.9361	248.413
52	7.94328	1416.17	402.087	1472.14	15.8506	251.448
53	6.30957	1452.3	467.16	1525.59	17.8314	254.614
54	5.01187	1495.83	543.002	1591.34	19.9514	257.674
55	3.98107	1547.42	631.243	1671.22	22.1921	260.859
56	3.16228	1602.33	729.713	1760.66	24.4849	264.019
57	2.51189	1665.49	844.846	1867.52	26.8971	267.284
58	1.99526	1734.32	971.908	1988.08	29.2662	270.804
59	1.58489	1815.71	1122.75	2134.8	31.7307	274.104
60	1.25893	1906.26	1291.37	2302.49	34.1152	277.494
61	1	2010.57	1487.78	2501.17	36.5007	283.879
62	0.794328	2125.28	1718.88	2733.38	38.9652	287.824
63	0.630957	2257.39	1975.96	3000.04	41.1967	291.909
64	0.501187	2416.79	2258.38	3307.74	43.0594	296.484
65	0.398107	2582.01	2608.64	3670.39	45.2939	301.444
66	0.316228	2767.4	3018.46	4095.07	47.4846	306.685
67	0.251189	2972.51	3488.12	4582.88	49.563	312.8
68	0.199526	3206.37	4042	5159.32	51.5763	319.5
69	0.158489	3473.45	4693.36	5838.88	53.4956	327.295
70	0.125893	3782.77	5464.13	6645.75	55.3055	336.46
71	0.1	4144.48	6381.62	7609.32	56.9987	347.15