File: data/plate_beam/Z_plate2_20241120.txt
Index	Frequency (Hz)	Z' (Ω)	-Z'' (Ω)	Z (Ω)	-Phase (°)	Time (s)
1	1000000	803.539	257.22	843.704	17.7503	53.0448
2	794328.25	826.961	256.43	865.807	17.228	63.39
3	630957.375	882.723	240.034	914.776	15.2123	68.7951
4	501187	926.894	223.86	953.543	13.5778	71.5051
5	398107	962.196	208.238	984.472	12.2116	80.0953
6	316228	993.224	192.616	1011.73	10.9751	82.2803
7	251189	1020.89	177.74	1036.25	9.87632	88.9605
8	199526	1044.87	163.789	1057.63	8.90893	91.1255
9	158489	1066.77	150.311	1077.3	8.02037	93.5056
10	125893	1085.76	138.418	1094.55	7.26515	95.1406
11	100000	1103.13	127.755	1110.51	6.60606	96.8706
12	79432.8	1118.48	116.014	1124.48	5.92183	102.231
13	63095.7	1133.17	109.028	1138.41	5.49576	106.846
14	50118.7	1146.64	102.952	1151.25	5.1306	114.091
15	39810.7	1159.11	97.8804	1163.23	4.82688	116.816
16	31622.8	1170.95	93.8664	1174.7	4.58319	125.351
17	25118.9	1182.44	90.9583	1185.94	4.39875	128.941
18	19952.6	1193.77	88.8039	1197.07	4.25435	131.561
19	15848.9	1204.99	87.627	1208.17	4.15925	139.691
20	12589.3	1216.36	87.1196	1219.47	4.09673	150.197
21	10000	1227.8	87.2042	1230.89	4.06261	158.517
22	7943.28	1239.99	87.9492	1243.11	4.05703	164.832
23	6309.57	1252.58	88.804	1255.72	4.05532	171.417
24	5011.87	1265.66	90.0443	1268.86	4.06941	183.317
25	3981.07	1278.91	91.1535	1282.154	4.07683	185.422
26	3162.28	1292.81	92.0158	1296.08	4.07118	187.327
27	2511.89	1307.25	92.7874	1310.54	4.05998	189.152
28	1995.26	1322.04	92.9307	1325.3	4.0209	191.002
29	1584.89	1336.63	92.5773	1339.83	3.96207	192.732
30	1258.93	1351.41	91.6933	1354.52	3.88158	194.482
31	1000	1366.01	90.0601	1368.98	3.772	196.567
32	794.328	1379.93	87.8828	1382.72	3.64405	198.748
33	630.957	1393.54	84.8879	1396.12	3.48589	200.773
34	501.187	1405.82	81.4455	1408.17	3.31571	202.568
35	398.107	1417.09	77.976	1419.23	3.14956	204.368
36	316.228	1426.66	74.8482	1428.62	3.00321	206.388
37	251.189	1435.42	72.3154	1437.24	2.88408	208.418
38	199.526	1441.95	71.1035	1443.71	2.823	210.473
39	158.489	1447.58	71.7241	1449.36	2.83655	212.513
40	125.893	1452.59	74.6881	1454.51	2.94339	214.583
41	100	1455.29	80.5892	1457.52	3.16962	216.658
42	79.4328	1460.7	91.8077	1463.58	3.59643	218.663
43	63.0957	1466.23	105.119	1469.99	4.10072	220.873
44	50.1187	1473.12	122.334	1478.2	4.74718	222.968
45	39.8107	1480.58	143.257	1487.49	5.5266	232.878
46	31.6228	1491.66	169.528	1501.26	6.4839	235.118
47	25.1189	1510.2	202.881	1523.77	7.65135	237.403
48	19.9526	1530.21	239.679	1548.86	8.90203	240.178
49	15.8489	1552.28	282.328	1577.75	10.3082	242.818
50	12.5893	1580.63	332.156	1615.15	11.8675	245.613
51	10	1613.92	389.064	1660.15	13.5536	248.413
52	7.94328	1652.54	455.853	1714.26	15.4215	251.448
53	6.30957	1697.58	529.259	1778.17	17.3161	254.614
54	5.01187	1751.74	612.966	1855.89	19.2859	257.674
55	3.98107	1816.05	708.296	1949.29	21.3068	260.859
56	3.16228	1886.93	814.463	2055.2	23.3466	264.019
57	2.51189	1969.6	936.628	2180.96	25.4331	267.284
58	1.99526	2060.14	1068.24	2320.63	27.4079	270.804
59	1.58489	2167.12	1221.64	2487.74	29.4107	274.104
60	1.25893	2284.69	1389.74	2674.18	31.3115	277.494
61	1	2418.09	1581.71	2889.46	33.1893	283.879
62	0.794328	2579.48	1785.18	3136.97	34.686	287.824
63	0.630957	2739.83	2032.35	3411.33	36.5672	291.909
64	0.501187	2914.55	2311.8	3720.08	38.4212	296.484
65	0.398107	3110.31	2639.45	4079.3	40.3184	301.444
66	0.316228	3324.22	3017.25	4489.35	42.2287	306.685
67	0.251189	3555.59	3449.04	4953.6	44.1285	312.8
68	0.199526	3812.08	3957.06	5494.57	46.069	319.5
69	0.158489	4104.33	4551.51	6128.76	47.9574	327.295
70	0.125893	4431.24	5249.25	6869.54	49.83	336.46
71	0.1	4807.42	6071.01	7743.93	51.6255	347.15