File: data/plate_beam/Z_plate1_20241219.txt
Index	Frequency (Hz)	Z' (Ω)	-Z'' (Ω)	Z (Ω)	-Phase (°)	Time (s)
1	1000000	550.889	179.405	579.366	18.0386	53.0448
2	794328.25	583.243	175.959	609.207	16.7881	63.39
3	630957.375	613.975	169.972	637.068	15.4742	68.7951
4	501187	642.057	162.638	662.335	14.2145	71.5051
5	398107	667.733	154.577	685.392	13.0341	80.0953
6	316228	690.877	146.361	706.21	11.9612	82.2803
7	251189	712.45	138.035	725.698	10.965	88.9605
8	199526	732.097	130.001	743.55	10.0693	91.1255
9	158489	750.259	122.24	760.153	9.25392	93.5056
10	125893	767.058	114.65	775.579	8.50092	95.1406
11	100000	782.513	107.717	789.892	7.83778	96.8706
12	79432.8	796.965	99.7935	803.189	7.13725	102.231
13	63095.7	810.526	94.5943	816.027	6.65672	106.846
14	50118.7	823.102	89.5905	827.963	6.21191	114.091
15	39810.7	834.856	84.955	839.167	5.81042	116.816
16	31622.8	845.771	80.8234	849.624	5.45871	125.351
17	25118.9	856.071	77.0926	859.535	5.14583	128.941
18	19952.6	865.808	73.9391	868.959	4.88116	131.561
19	15848.9	875.053	71.4774	877.967	4.66975	139.691
20	12589.3	883.992	69.7085	886.737	4.50881	150.197
21	10000	892.774	68.4853	895.397	4.3866	158.517
22	7943.28	901.452	68.0746	904.019	4.31859	164.832
23	6309.57	910.233	68.0858	912.776	4.27778	171.417
24	5011.87	919.115	68.7358	921.682	4.27689	183.317
25	3981.07	928.362	69.8879	930.989	4.30516	185.422
26	3162.28	937.879	71.325	940.588	4.34893	187.327
27	2511.89	947.733	73.2521	950.56	4.41971	189.152
28	1995.26	958.046	75.4051	961.009	4.50031	191.002
29	1584.89	968.741	77.6767	971.85	4.58435	192.732
30	1258.93	979.799	80.2166	983.077	4.68039	194.482
31	1000	991.398	82.7606	994.846	4.77191	196.567
32	794.328	1003.13	85.4574	1006.76	4.86932	198.748
33	630.957	1015.31	88.1901	1019.14	4.96425	200.773
34	501.187	1027.25	91.4958	1031.31	5.08984	202.568
35	398.107	1039.5	95.0148	1043.83	5.22259	204.368
36	316.228	1051.76	99.1862	1056.43	5.38733	206.388
37	251.189	1064.06	104.166	1069.14	5.59118	208.418
38	199.526	1076.45	110.351	1082.1	5.85314	210.473
39	158.489	1088.95	118.106	1095.34	6.19	212.513
40	125.893	1101.8	127.891	1109.2	6.62094	214.583
41	100	1115.38	140.081	1124.14	7.15836	216.658
42	79.4328	1129.74	156.284	1140.49	7.87611	218.663
43	63.0957	1145.94	174.737	1159.18	8.66993	220.873
44	50.1187	1164.01	196.624	1180.5	9.58784	222.968
45	39.8107	1184.89	223.056	1205.7	10.6612	232.878
46	31.6228	1208.52	253.567	1234.84	11.8497	235.118
47	25.1189	1236.19	289.363	1269.61	13.1744	237.403
48	19.9526	1268	329.79	1310.18	14.5789	240.178
49	15.8489	1304.44	376.54	1357.69	16.1014	242.818
50	12.5893	1346.09	429.55	1412.96	17.6984	245.613
51	10	1394.24	489.908	1477.8	19.3605	248.413
52	7.94328	1447.26	558.829	1551.41	21.113	251.448
53	6.30957	1508.56	634.208	1636.46	22.8021	254.614
54	5.01187	1579.16	719.489	1735.34	24.4947	257.674
55	3.98107	1659.6	815.931	1849.33	26.1807	260.859
56	3.16228	1747.53	922.024	1975.85	27.8168	264.019
57	2.51189	1847.37	1042.08	2121.02	29.4269	267.284
58	1.99526	1953.94	1170.88	2277.91	30.9318	270.804
59	1.58489	2075.53	1320.03	2459.73	32.4563	274.104
60	1.25893	2205.37	1482.72	2657.46	33.9138	277.494
61	1	2348.16	1668.11	2880.35	35.3897	283.879
62	0.794328	2514.68	1866.24	3131.52	36.5805	287.824
63	0.630957	2676.07	2106.02	3405.39	38.2021	291.909
64	0.501187	2847.18	2379.44	3710.55	39.8862	296.484
65	0.398107	3034.06	2703.72	4063.95	41.705	301.444
66	0.316228	3237.31	3086.64	4472.98	43.6351	306.685
67	0.251189	3455.33	3529.17	4939.07	45.6057	312.8
68	0.199526	3700.62	4056.71	5491.04	47.6282	319.5
69	0.158489	3979.03	4681.78	6144.24	49.639	327.295
70	0.125893	4300.49	5425.13	6922.88	51.5962	336.46
71	0.1	4675.53	6309.86	7853.33	53.462	347.15