File: data/plate_beam/Z_plate3_20241120 .txt
Index	Frequency (Hz)	Z' (Ω)	-Z'' (Ω)	Z (Ω)	-Phase (°)	Time (s)
1	1000000	678.712	205.062	709.014	16.8113	53.0448
2	794328.25	712.059	198.192	739.127	15.5538	63.39
3	630957.375	748.819	187.143	771.85	14.0318	68.7951
4	501187	780.302	174.27	799.525	12.5896	71.5051
5	398107	807.185	161.132	823.11	11.2891	80.0953
6	316228	830.166	148.781	843.393	10.1606	82.2803
7	251189	851.7	135.834	862.464	9.06154	88.9605
8	199526	869.531	124.753	878.435	8.1646	91.1255
9	158489	885.736	115.026	893.174	7.39928	93.5056
10	125893	899.992	106.413	906.261	6.74321	95.1406
11	100000	913.088	98.8678	918.425	6.17983	96.8706
12	79432.8	925.479	90.1121	929.855	5.56125	102.231
13	63095.7	937.093	85.4664	940.983	5.21117	106.846
14	50118.7	948.004	81.1597	951.472	4.89322	114.091
15	39810.7	958.344	77.369	961.462	4.61559	116.816
16	31622.8	967.88	74.2461	970.724	4.38657	125.351
17	25118.9	977.283	71.7164	979.911	4.19704	128.941
18	19952.6	986.45	69.6698	988.907	4.03991	131.561
19	15848.9	995.329	68.1716	997.661	3.91816	139.691
20	12589.3	1004.3	67.2246	1006.54	3.82949	150.197
21	10000	1013.33	66.6532	1015.52	3.76327	158.517
22	7943.28	1022.28	66.5605	1024.45	3.72526	164.832
23	6309.57	1031.5	66.6569	1033.65	3.69739	171.417
24	5011.87	1040.86	67.0942	1043.02	3.68821	183.317
25	3981.07	1050.53	67.5926	1052.7	3.68141	185.422
26	3162.28	1060.44	68.1442	1062.63	3.67679	187.327
27	2511.89	1070.62	68.733	1072.82	3.67331	189.152
28	1995.26	1080.87	69.1962	1083.08	3.66302	191.002
29	1584.89	1091.51	69.4314	1093.72	3.63969	192.732
30	1258.93	1101.89	69.5492	1104.08	3.61162	194.482
31	1000	1112.54	69.1964	1114.69	3.55902	196.567
32	794.328	1122.86	68.6737	1124.96	3.49981	198.748
33	630.957	1132.87	68.0165	1134.91	3.43587	200.773
34	501.187	1142.35	67.2954	1144.33	3.37137	202.568
35	398.107	1151.34	66.7164	1153.28	3.31638	204.368
36	316.228	1159.65	66.4929	1161.56	3.28168	206.388
37	251.189	1167.3	66.9229	1169.22	3.28125	208.418
38	199.526	1174.59	68.4059	1176.58	3.33302	210.473
39	158.489	1181.11	71.1719	1183.25	3.44838	212.513
40	125.893	1187.67	75.7413	1190.08	3.649	214.583
41	100	1194.1	82.2994	1196.93	3.94268	216.658
42	79.4328	1201.16	92.3428	1204.71	4.39612	218.663
43	63.0957	1208.92	103.895	1213.37	4.91194	220.873
44	50.1187	1217.87	118.095	1223.58	5.53856	222.968
45	39.8107	1228.68	135.858	1236.17	6.3097	232.878
46	31.6228	1241.81	157.056	1251.7	7.20814	235.118
47	25.1189	1256.4	182.084	1269.52	8.24623	237.403
48	19.9526	1275.16	211.211	1292.54	9.40478	240.178
49	15.8489	1296.17	245.021	1319.12	10.7046	242.818
50	12.5893	1321.26	284.032	1351.45	12.1322	245.613
51	10	1351.16	328.693	1390.57	13.6726	248.413
52	7.94328	1384.82	380.303	1436.1	15.3561	251.448
53	6.30957	1423.41	436.693	1488.89	17.0557	254.614
54	5.01187	1469.17	501.029	1552.25	18.8309	257.674
55	3.98107	1522.54	574.289	1627.25	20.6661	260.859
56	3.16228	1579.15	655.133	1709.65	22.5318	264.019
57	2.51189	1641.88	747.84	1804.17	24.4882	267.284
58	1.99526	1708.92	849.719	1908.52	26.4377	270.804
59	1.58489	1784.41	969.14	2030.61	28.507	274.104
60	1.25893	1866.14	1102.41	2167.44	30.5721	277.494
61	1	1957	1256.84	2325.84	32.7097	283.879
62	0.794328	2054.23	1440.56	2509	35.0406	287.824
63	0.630957	2165.35	1644.13	2718.81	37.2091	291.909
64	0.501187	2283.41	1875.8	2955.09	39.4028	296.484
65	0.398107	2432.43	2144.68	3242.9	41.4027	301.444
66	0.316228	2583.32	2469.72	3573.94	43.7122	306.685
67	0.251189	2749.41	2843.62	3955.43	45.965	312.8
68	0.199526	2938.52	3284.36	4407.04	48.181	319.5
69	0.158489	3155.58	3803.2	4941.87	50.3169	327.295
70	0.125893	3408.14	4417.75	5579.6	52.3511	336.46
71	0.1	3704.42	5143.03	6338.26	54.2355	347.15