File: data/plate_beam/Z_plate2_20241129.txt
Index	Frequency (Hz)	Z' (Ω)	-Z'' (Ω)	Z (Ω)	-Phase (°)	Time (s)
1	1000000	841.758	261.55	881.456	17.261	53.0448
2	794328.25	888.499	250.856	923.234	15.7663	63.39
3	630957.375	930.36	237.317	960.151	14.3099	68.7951
4	501187	968.048	222.152	993.211	12.9247	71.5051
5	398107	1000.9	206.943	1022.07	11.6817	80.0953
6	316228	1030.19	192.273	1047.98	10.572	82.2803
7	251189	1056.8	178.522	1071.77	9.58832	88.9605
8	199526	1080.55	165.272	1093.12	8.69608	91.1255
9	158489	1102.37	153.423	1112.99	7.92327	93.5056
10	125893	1121.98	142.166	1130.95	7.22149	95.1406
11	100000	1140.04	132.031	1147.66	6.60613	96.8706
12	79432.8	1156.38	121.71	1162.77	6.00828	102.231
13	63095.7	1171.75	114.894	1177.37	5.60012	106.846
14	50118.7	1185.97	108.925	1190.96	5.24759	114.091
15	39810.7	1199.4	103.955	1203.9	4.95361	116.816
16	31622.8	1212.08	99.9612	1216.19	4.71456	125.351
17	25118.9	1224.5	96.83	1228.32	4.52139	128.941
18	19952.6	1236.69	94.6263	1240.31	4.37549	131.561
19	15848.9	1248.88	93.2138	1252.35	4.26853	139.691
20	12589.3	1261.14	92.5073	1264.53	4.19525	150.197
21	10000	1273.62	92.3721	1276.96	4.14824	158.517
22	7943.28	1286.39	92.7626	1289.73	4.1245	164.832
23	6309.57	1299.61	93.2233	1302.95	4.10289	171.417
24	5011.87	1313.27	93.9753	1316.63	4.09301	183.317
25	3981.07	1327.22	94.7431	1330.6	4.08311	185.422
26	3162.28	1341.69	95.2743	1345.07	4.06178	187.327
27	2511.89	1356.39	95.5088	1359.75	4.02779	189.152
28	1995.26	1371.31	95.3147	1374.62	3.97602	191.002
29	1584.89	1386.25	94.4845	1389.47	3.89914	192.732
30	1258.93	1401.45	92.9773	1404.53	3.79565	194.482
31	1000	1416.09	90.8984	1419	3.67277	196.567
32	794.328	1430.52	87.9769	1433.22	3.51926	198.748
33	630.957	1444.21	84.3225	1446.67	3.34151	200.773
34	501.187	1456.18	80.3142	1458.39	3.1569	202.568
35	398.107	1467.17	76.1176	1469.14	2.96988	204.368
36	316.228	1476.6	72.1141	1478.36	2.79599	206.388
37	251.189	1484.49	68.7682	1486.08	2.65231	208.418
38	199.526	1490.8	66.7135	1492.29	2.56228	210.473
39	158.489	1495.64	66.5535	1497.12	2.54788	212.513
40	125.893	1499.46	68.8696	1501.05	2.62972	214.583
41	100	1502.8	74.166	1504.63	2.82536	216.658
42	79.4328	1506	84.3527	1508.36	3.20584	218.663
43	63.0957	1509.98	97.1513	1513.1	3.68131	220.873
44	50.1187	1515.57	113.784	1519.83	4.29353	222.968
45	39.8107	1522.98	135.446	1528.99	5.08223	232.878
46	31.6228	1532.73	161.443	1541.21	6.01281	235.118
47	25.1189	1545.69	193.049	1557.7	7.11908	237.403
48	19.9526	1562.49	229.64	1579.27	8.36095	240.178
49	15.8489	1582.78	273.11	1606.17	9.79005	242.818
50	12.5893	1607.09	323.571	1639.34	11.3837	245.613
51	10	1636.94	382.395	1681.01	13.1487	248.413
52	7.94328	1670.79	451.368	1730.68	15.1177	251.448
53	6.30957	1710.5	528.424	1790.27	17.1674	254.614
54	5.01187	1758.92	617.889	1864.29	19.3558	257.674
55	3.98107	1816.77	721.232	1954.69	21.6524	260.859
56	3.16228	1879.63	838.024	2057.99	24.0294	264.019
57	2.51189	1953.43	974.382	2182.96	26.5102	267.284
58	1.99526	2035.29	1123.88	2324.98	28.9073	270.804
59	1.58489	2133.18	1301.1	2498.66	31.3804	274.104
60	1.25893	2243.11	1498.33	2697.51	33.7418	277.494
61	1	2371.12	1726.55	2933.12	36.0606	283.879
62	0.794328	2530.53	1974.95	3209.98	37.9701	287.824
63	0.630957	2692.78	2273.9	3524.44	40.1793	291.909
64	0.501187	2874.64	2613.03	3884.78	42.2707	296.484
65	0.398107	3082.85	3010.79	4309.16	44.3225	301.444
66	0.316228	3316.07	3472.35	4801.41	46.3188	306.685
67	0.251189	3575.04	3997.66	5363.04	48.1942	312.8
68	0.199526	3870.25	4613.09	6021.58	50.0043	319.5
69	0.158489	4206.46	5332.17	6791.64	51.7307	327.295
70	0.125893	4594.07	6178.12	7699	53.3654	336.46
71	0.1	5045.14	7177.55	8773.29	54.8964	347.15