File: data/plate_beam/Z_plate2_20241212.txt
Index	Frequency (Hz)	Z' (Ω)	-Z'' (Ω)	Z (Ω)	-Phase (°)	Time (s)
1	1000000	956.388	366.935	1024.36	20.9902	53.0448
2	794328.25	1022.68	355.09	1082.57	19.1479	63.39
3	630957.375	1083.83	338.228	1135.38	17.3315	68.7951
4	501187	1138.76	318.068	1182.34	15.6057	71.5051
5	398107	1186.79	296.988	1223.38	14.0495	80.0953
6	316228	1230.39	276.229	1261.02	12.6534	82.2803
7	251189	1268.84	256.639	1294.53	11.4346	88.9605
8	199526	1303.87	237.413	1325.31	10.3196	91.1255
9	158489	1335.9	219.51	1353.82	9.33124	93.5056
10	125893	1364.01	202.994	1379.03	8.46472	95.1406
11	100000	1389.67	187.851	1402.31	7.69838	96.8706
12	79432.8	1413.07	172.819	1423.6	6.97264	102.231
13	63095.7	1434.82	161.598	1443.89	6.42592	106.846
14	50118.7	1454.64	151.714	1462.53	5.95424	114.091
15	39810.7	1473.19	143.266	1480.14	5.55448	116.816
16	31622.8	1490.42	136.349	1496.64	5.2271	125.351
17	25118.9	1507.05	130.811	1512.72	4.96079	128.941
18	19952.6	1523.11	126.511	1528.36	4.74814	131.561
19	15848.9	1538.92	123.506	1543.87	4.58844	139.691
20	12589.3	1554.78	121.496	1559.52	4.46819	150.197
21	10000	1570.72	120.458	1575.33	4.3854	158.517
22	7943.28	1586.95	120.265	1591.5	4.33381	164.832
23	6309.57	1603.49	120.28	1607.99	4.28982	171.417
24	5011.87	1620.51	121.129	1625.03	4.27476	183.317
25	3981.07	1638.18	121.944	1642.71	4.25718	185.422
26	3162.28	1656.15	122.699	1660.69	4.23713	187.327
27	2511.89	1674.72	123.507	1679.27	4.21781	189.152
28	1995.26	1693.72	123.862	1698.25	4.18259	191.002
29	1584.89	1713.03	123.818	1717.5	4.13416	192.732
30	1258.93	1732.48	123.008	1736.84	4.06124	194.482
31	1000	1752.03	121.232	1756.22	3.95826	196.567
32	794.328	1771.1	118.889	1775.09	3.84034	198.748
33	630.957	1789.71	115.202	1793.41	3.68301	200.773
34	501.187	1807.09	110.949	1810.49	3.51334	202.568
35	398.107	1823.4	106.114	1826.49	3.33062	204.368
36	316.228	1838.15	100.976	1840.92	3.1443	206.388
37	251.189	1850.98	96.0599	1853.47	2.9708	208.418
38	199.526	1861.89	91.7984	1864.16	2.82261	210.473
39	158.489	1870.74	89.0674	1872.86	2.72584	212.513
40	125.893	1877.94	88.6962	1880.03	2.7041	214.583
41	100	1883.88	91.069	1886.08	2.7676	216.658
42	79.4328	1888.84	98.9444	1891.43	2.99863	218.663
43	63.0957	1893.96	109.236	1897.1	3.30094	220.873
44	50.1187	1900.01	123.963	1904.05	3.73289	222.968
45	39.8107	1907.59	144.231	1913.04	4.32384	232.878
46	31.6228	1917.13	169.846	1924.64	5.06284	235.118
47	25.1189	1930.01	201.654	1940.51	5.96484	237.403
48	19.9526	1946.78	239.393	1961.44	7.01041	240.178
49	15.8489	1967.13	284.715	1987.63	8.23556	242.818
50	12.5893	1992.09	337.869	2020.54	9.62607	245.613
51	10	2022.81	400.209	2062.02	11.1913	248.413
52	7.94328	2057.9	474.997	2112.01	12.9971	251.448
53	6.30957	2099.66	557.608	2172.44	14.8727	254.614
54	5.01187	2151.08	654.253	2248.37	16.9172	257.674
55	3.98107	2212.65	766.852	2341.77	19.1151	260.859
56	3.16228	2279.2	893.916	2448.23	21.4154	264.019
57	2.51189	2357.2	1042.46	2577.42	23.8572	267.284
58	1.99526	2444.69	1206.59	2726.24	26.2689	270.804
59	1.58489	2548.61	1401.79	2908.69	28.8118	274.104
60	1.25893	2665.23	1617.69	3117.75	31.2561	277.494
61	1	2800.92	1870.38	3368.01	33.7339	283.879
62	0.794328	2970.21	2148.76	3665.97	35.8834	287.824
63	0.630957	3143.78	2481.18	4004.94	38.2817	291.909
64	0.501187	3338.73	2859.37	4395.8	40.5775	296.484
65	0.398107	3562.63	3302.99	4858.19	42.8343	301.444
66	0.316228	3813.28	3817.57	5395.82	45.0322	306.685
67	0.251189	4092.66	4405.71	6013.33	47.1096	312.8
68	0.199526	4409.63	5092.52	6736.36	49.1106	319.5
69	0.158489	4770.96	5897.32	7585.54	51.0269	327.295
70	0.125893	5188.28	6845.48	8589.46	52.841	336.46
71	0.1	5674.69	7967.35	9781.66	54.5399	347.15