File: data/plate_beam/Z_plate3_20241205.txt
Index	Frequency (Hz)	Z' (Ω)	-Z'' (Ω)	Z (Ω)	-Phase (°)	Time (s)
1	1000000	767.811	258.588	810.186	18.6128	53.0448
2	794328.25	815.421	249.754	852.812	17.0292	63.39
3	630957.375	859.198	236.783	891.228	15.4075	68.7951
4	501187	898.475	221.672	925.417	13.8592	71.5051
5	398107	932.001	205.7	954.431	12.4461	80.0953
6	316228	961.8	189.814	980.351	11.164	82.2803
7	251189	987.595	175.189	1003.01	10.059	88.9605
8	199526	1010.79	161.818	1023.66	9.09534	91.1255
9	158489	1031.61	149.178	1042.34	8.22833	93.5056
10	125893	1050.14	138.199	1059.19	7.4971	95.1406
11	100000	1067.29	128.329	1074.98	6.85624	96.8706
12	79432.8	1083.2	118.511	1089.67	6.24376	102.231
13	63095.7	1098.28	111.858	1103.96	5.81543	106.846
14	50118.7	1112.36	105.803	1117.38	5.43339	114.091
15	39810.7	1125.66	100.54	1130.14	5.10395	116.816
16	31622.8	1138.28	95.9941	1142.32	4.8205	125.351
17	25118.9	1150.38	92.1518	1154.06	4.57994	128.941
18	19952.6	1162.1	88.9998	1165.51	4.37946	131.561
19	15848.9	1173.47	86.5636	1176.66	4.21891	139.691
20	12589.3	1184.75	84.697	1187.77	4.08908	150.197
21	10000	1195.99	83.4443	1198.9	3.99105	158.517
22	7943.28	1207.16	82.7742	1210	3.92259	164.832
23	6309.57	1218.48	82.3515	1221.26	3.86648	171.417
24	5011.87	1229.94	82.3291	1232.69	3.82952	183.317
25	3981.07	1241.63	82.4942	1244.37	3.80117	185.422
26	3162.28	1253.55	82.8461	1256.28	3.78113	187.327
27	2511.89	1265.78	83.308	1268.52	3.76552	189.152
28	1995.26	1278.15	83.4782	1280.87	3.73678	191.002
29	1584.89	1290.71	83.6782	1293.42	3.70935	192.732
30	1258.93	1303.16	83.6388	1305.84	3.67229	194.482
31	1000	1316.1	83.2643	1318.73	3.62005	196.567
32	794.328	1328.54	82.3975	1331.09	3.549	198.748
33	630.957	1340.89	81.4095	1343.36	3.47434	200.773
34	501.187	1352.31	80.2861	1354.7	3.39763	202.568
35	398.107	1363.39	79.0833	1365.68	3.31972	204.368
36	316.228	1373.71	78.1743	1375.93	3.25704	206.388
37	251.189	1383.17	77.8503	1385.36	3.22145	208.418
38	199.526	1391.92	78.3867	1394.12	3.22324	210.473
39	158.489	1399.83	80.3535	1402.14	3.2853	212.513
40	125.893	1407.4	84.1067	1409.91	3.41995	214.583
41	100	1414.84	89.9916	1417.69	3.63944	216.658
42	79.4328	1422.24	99.6909	1425.73	4.00955	218.663
43	63.0957	1430.41	111.003	1434.71	4.43737	220.873
44	50.1187	1439.8	125.287	1445.24	4.97316	222.968
45	39.8107	1450.78	143.478	1457.86	5.64805	232.878
46	31.6228	1463.39	165.231	1472.69	6.44195	235.118
47	25.1189	1478.77	191.642	1491.14	7.38414	237.403
48	19.9526	1497.34	222.328	1513.76	8.44566	240.178
49	15.8489	1518.75	258.434	1540.58	9.6571	242.818
50	12.5893	1543.62	300.437	1572.59	11.0139	245.613
51	10	1573.43	349.085	1611.68	12.5092	248.413
52	7.94328	1606.69	406.162	1657.23	14.1868	251.448
53	6.30957	1644.26	469.258	1709.91	15.9283	254.614
54	5.01187	1689.27	542.773	1774.32	17.8126	257.674
55	3.98107	1742.41	628.078	1852.15	19.8225	260.859
56	3.16228	1796.87	723.637	1937.11	21.9357	264.019
57	2.51189	1858.14	836.158	2037.6	24.2277	267.284
58	1.99526	1923.86	960.869	2150.47	26.5397	270.804
59	1.58489	1999.56	1110.1	2287.04	29.0378	274.104
60	1.25893	2082.55	1279.28	2444.09	31.5619	277.494
61	1	2177.87	1478.22	2632.16	34.1665	283.879
62	0.794328	2281.9	1717.15	2855.82	36.9618	287.824
63	0.630957	2420.24	1968.84	3119.92	39.1281	291.909
64	0.501187	2558.32	2280.71	3427.34	41.7166	296.484
65	0.398107	2720.22	2651.91	3798.98	44.2715	301.444
66	0.316228	2903.94	3083.92	4235.97	46.7217	306.685
67	0.251189	3111.76	3581.12	4744.21	49.0115	312.8
68	0.199526	3351.26	4166.52	5347.04	51.1892	319.5
69	0.158489	3626.62	4853.33	6058.65	53.2313	327.295
70	0.125893	3946.65	5664.75	6904.02	55.135	336.46
71	0.1	4321.31	6626.68	7911.17	56.8913	347.15