File: data/plate_beam/Z_plate1_20241205.txt
Index	Frequency (Hz)	Z' (Ω)	-Z'' (Ω)	Z (Ω)	-Phase (°)	Time (s)
1	1000000	525.413	186.96	557.685	19.5873	53.0448
2	794328.25	557.422	181.788	586.316	18.0623	63.39
3	630957.375	587.778	174.535	613.143	16.5383	68.7951
4	501187	615.671	166.082	637.679	15.0966	71.5051
5	398107	640.969	157.489	660.033	13.8044	80.0953
6	316228	664.353	148.618	680.773	12.6097	82.2803
7	251189	685.846	139.912	699.971	11.5301	88.9605
8	199526	705.624	131.402	717.755	10.5488	91.1255
9	158489	724.112	122.912	734.469	9.6337	93.5056
10	125893	741.098	114.981	749.964	8.8191	95.1406
11	100000	756.702	107.385	764.283	8.07704	96.8706
12	79432.8	771.108	100.258	777.598	7.40795	102.231
13	63095.7	784.732	93.7665	790.314	6.81389	106.846
14	50118.7	797.149	87.4466	801.931	6.26027	114.091
15	39810.7	808.487	81.4206	812.577	5.75071	116.816
16	31622.8	818.804	75.8292	822.308	5.29105	125.351
17	25118.9	828.206	70.6887	831.217	4.87846	128.941
18	19952.6	836.782	66.1702	839.394	4.52137	131.561
19	15848.9	844.63	62.3429	846.928	4.22139	139.691
20	12589.3	851.956	59.2538	854.014	3.97853	150.197
21	10000	858.866	57.0102	860.757	3.79763	158.517
22	7943.28	865.49	55.5363	867.27	3.67149	164.832
23	6309.57	872.125	54.7052	873.839	3.58925	171.417
24	5011.87	878.744	54.6412	880.441	3.55813	183.317
25	3981.07	885.582	55.1716	887.299	3.56491	185.422
26	3162.28	892.669	56.1696	894.434	3.60049	187.327
27	2511.89	900.233	57.5413	902.07	3.65727	189.152
28	1995.26	908.075	59.3726	910.014	3.74084	191.002
29	1584.89	916.471	61.2739	918.517	3.82502	192.732
30	1258.93	925.188	63.3831	927.357	3.91912	194.482
31	1000	934.306	65.6304	936.608	4.01815	196.567
32	794.328	943.727	67.7142	946.153	4.10405	198.748
33	630.957	953.324	70.0485	955.894	4.20244	200.773
34	501.187	962.876	72.5306	965.604	4.30778	202.568
35	398.107	972.635	75.2742	975.543	4.42542	204.368
36	316.228	982.35	78.4731	985.479	4.56726	206.388
37	251.189	992.006	82.2996	995.414	4.74255	208.418
38	199.526	1001.63	87.0709	1005.41	4.96817	210.473
39	158.489	1011.21	93.1323	1015.49	5.26209	212.513
40	125.893	1020.91	100.85	1025.87	5.64164	214.583
41	100	1031.04	110.637	1036.96	6.12475	216.658
42	79.4328	1041.59	123.852	1048.93	6.78105	218.663
43	63.0957	1053.35	139.149	1062.5	7.52529	220.873
44	50.1187	1066.45	157.578	1078.03	8.40516	222.968
45	39.8107	1081.58	180.145	1096.48	9.45626	232.878
46	31.6228	1098.69	206.699	1117.97	10.6546	235.118
47	25.1189	1118.98	238.288	1144.07	12.0216	237.403
48	19.9526	1142.75	274.626	1175.28	13.5131	240.178
49	15.8489	1169.98	317.274	1212.23	15.1725	242.818
50	12.5893	1201.22	366.242	1255.82	16.956	245.613
51	10	1237.81	422.968	1308.08	18.8656	248.413
52	7.94328	1278.39	488.456	1368.53	20.9111	251.448
53	6.30957	1325.03	561.521	1439.1	22.9663	254.614
54	5.01187	1379.68	646.203	1523.52	25.0971	257.674
55	3.98107	1443.01	743.888	1623.46	27.2717	260.859
56	3.16228	1512.31	853.323	1736.45	29.4339	264.019
57	2.51189	1591.52	980.363	1869.24	31.6327	267.284
58	1.99526	1678.4	1120.32	2017.96	33.7228	270.804
59	1.58489	1780.3	1286.21	2196.32	35.8468	274.104
60	1.25893	1893.38	1472.19	2398.38	37.8666	277.494
61	1	2023.97	1688.78	2635.98	39.8413	283.879
62	0.794328	2165.06	1946.97	2911.73	41.9639	287.824
63	0.630957	2350.56	2216.14	3230.55	43.314	291.909
64	0.501187	2535.65	2545.58	3592.98	45.112	296.484
65	0.398107	2748.7	2933.77	4020.24	46.8654	301.444
66	0.316228	2987.79	3385.57	4515.41	48.5714	306.685
67	0.251189	3252.92	3901	5079.3	50.1764	312.8
68	0.199526	3552.85	4506.99	5738.97	51.7514	319.5
69	0.158489	3891.85	5217.53	6509.16	53.2801	327.295
70	0.125893	4278.9	6057.05	7415.99	54.7614	336.46
71	0.1	4723.87	7053.09	8488.87	56.1875	347.15