File: data/plate_beam/Z_plate2_20241205.txt
Index	Frequency (Hz)	Z' (Ω)	-Z'' (Ω)	Z (Ω)	-Phase (°)	Time (s)
1	1000000	912.604	327.526	969.598	19.7427	53.0448
2	794328.25	972.28	315.923	1022.32	18.0005	63.39
3	630957.375	1026.26	299.452	1069.05	16.2667	68.7951
4	501187	1075.02	281.144	1111.18	14.6559	71.5051
5	398107	1117.39	262.174	1147.74	13.2045	80.0953
6	316228	1155	243.502	1180.39	11.905	82.2803
7	251189	1188.8	225.696	1210.04	10.7498	88.9605
8	199526	1218.86	208.555	1236.57	9.70969	91.1255
9	158489	1246.79	192.892	1261.62	8.79457	93.5056
10	125893	1271.37	178.384	1283.82	7.98693	95.1406
11	100000	1293.67	165.05	1304.15	7.27069	96.8706
12	79432.8	1314.27	151.655	1323	6.58229	102.231
13	63095.7	1333.39	142.344	1340.97	6.09345	106.846
14	50118.7	1350.94	134.089	1357.58	5.66837	114.091
15	39810.7	1367.34	127.019	1373.23	5.30727	116.816
16	31622.8	1382.77	121.327	1388.09	5.01439	125.351
17	25118.9	1397.68	116.765	1402.55	4.77554	128.941
18	19952.6	1412.16	113.331	1416.7	4.58836	131.561
19	15848.9	1426.51	110.882	1430.81	4.44465	139.691
20	12589.3	1440.83	109.417	1444.98	4.34275	150.197
21	10000	1455.35	108.551	1459.39	4.26564	158.517
22	7943.28	1470.14	108.62	1474.15	4.22558	164.832
23	6309.57	1485.18	108.821	1489.16	4.19063	171.417
24	5011.87	1500.74	109.466	1504.73	4.17184	183.317
25	3981.07	1516.66	110.327	1520.67	4.16057	185.422
26	3162.28	1533.09	110.986	1537.1	4.14062	187.327
27	2511.89	1550.01	111.454	1554.01	4.1128	189.152
28	1995.26	1567.24	111.686	1571.21	4.07617	191.002
29	1584.89	1584.65	111.37	1588.56	4.02019	192.732
30	1258.93	1602.36	110.499	1606.16	3.94491	194.482
31	1000	1619.74	108.378	1623.36	3.82799	196.567
32	794.328	1637.02	106.021	1640.45	3.70559	198.748
33	630.957	1653.63	102.558	1656.8	3.54895	200.773
34	501.187	1668.74	98.5703	1671.65	3.38045	202.568
35	398.107	1682.98	93.992	1685.6	3.19658	204.368
36	316.228	1695.59	89.4765	1697.95	3.0207	206.388
37	251.189	1706.56	85.1488	1708.68	2.85641	208.418
38	199.526	1715.86	81.7757	1717.81	2.72857	210.473
39	158.489	1723.28	80.0375	1725.14	2.65918	212.513
40	125.893	1729.38	80.4485	1731.25	2.6634	214.583
41	100	1734.48	83.635	1736.5	2.7606	216.658
42	79.4328	1738.96	91.8295	1741.39	3.02281	218.663
43	63.0957	1743.75	102.431	1746.75	3.3618	220.873
44	50.1187	1749.66	117.058	1753.57	3.82758	222.968
45	39.8107	1757.08	136.705	1762.39	4.44876	232.878
46	31.6228	1766.59	161.164	1773.92	5.21259	235.118
47	25.1189	1779.18	191.275	1789.43	6.13616	237.403
48	19.9526	1795.64	226.623	1809.88	7.19312	240.178
49	15.8489	1815.52	268.93	1835.33	8.42584	242.818
50	12.5893	1839.56	318.224	1866.88	9.81442	245.613
51	10	1869.15	375.533	1906.5	11.3601	248.413
52	7.94328	1903.09	443.644	1954.12	13.1223	251.448
53	6.30957	1942.73	518.974	2010.86	14.9565	254.614
54	5.01187	1991.33	606.59	2081.67	16.9416	257.674
55	3.98107	2049.44	707.491	2168.12	19.0452	260.859
56	3.16228	2112.3	821.538	2266.44	21.2526	264.019
57	2.51189	2183.49	955.385	2383.35	23.6318	267.284
58	1.99526	2262.59	1102.21	2516.78	25.9729	270.804
59	1.58489	2355.88	1276.7	2679.58	28.4542	274.104
60	1.25893	2459.19	1472.09	2866.12	30.905	277.494
61	1	2578.63	1698.29	3087.64	33.369	283.879
62	0.794328	2728.44	1949.55	3353.38	35.547	287.824
63	0.630957	2881.09	2253.27	3657.58	38.0286	291.909
64	0.501187	3054.36	2600.53	4011.47	40.4117	296.484
65	0.398107	3255.47	3009.25	4433.25	42.7493	301.444
66	0.316228	3482.67	3483.28	4925.67	45.005	306.685
67	0.251189	3737.64	4024.77	5492.6	47.1184	312.8
68	0.199526	4028.8	4658.87	6159.24	49.1481	319.5
69	0.158489	4360.44	5399.25	6940.12	51.0756	327.295
70	0.125893	4742.76	6270.87	7862.41	52.8992	336.46
71	0.1	5187.82	7300.98	8956.44	54.6037	347.15