File: data/plate_beam/Z_plate3_20241212.txt
Index	Frequency (Hz)	Z' (Ω)	-Z'' (Ω)	Z (Ω)	-Phase (°)	Time (s)
1	1000000	814.841	296.949	867.262	20.023	53.0448
2	794328.25	869.752	287.809	916.135	18.3099	63.39
3	630957.375	920.103	273.908	960.008	16.5779	68.7951
4	501187	965.136	256.986	998.763	14.9102	71.5051
5	398107	1004.3	239.659	1032.5	13.4217	80.0953
6	316228	1039.13	222.065	1062.6	12.0628	82.2803
7	251189	1069.83	205.351	1089.36	10.8656	88.9605
8	199526	1096.99	189.947	1113.31	9.82355	91.1255
9	158489	1121.7	175.564	1135.35	8.89553	93.5056
10	125893	1144.25	162.925	1155.79	8.10365	95.1406
11	100000	1164.58	151.445	1174.38	7.40934	96.8706
12	79432.8	1183.45	140.367	1191.74	6.76419	102.231
13	63095.7	1201.4	132.326	1208.66	6.2854	106.846
14	50118.7	1218.19	124.994	1224.58	5.85843	114.091
15	39810.7	1233.93	118.585	1239.62	5.48949	116.816
16	31622.8	1248.87	112.996	1253.97	5.16995	125.351
17	25118.9	1263.23	108.301	1267.86	4.90021	128.941
18	19952.6	1276.98	104.224	1281.23	4.66597	131.561
19	15848.9	1290.48	101.051	1294.43	4.47742	139.691
20	12589.3	1303.6	98.4956	1307.32	4.32085	150.197
21	10000	1316.56	96.6674	1320.11	4.19935	158.517
22	7943.28	1329.54	95.4965	1332.97	4.10831	164.832
23	6309.57	1342.63	94.5482	1345.95	4.02814	171.417
24	5011.87	1355.66	94.1325	1358.92	3.97206	183.317
25	3981.07	1368.93	93.9035	1372.15	3.92412	185.422
26	3162.28	1382.51	93.9178	1385.69	3.88631	187.327
27	2511.89	1396.27	94.0308	1399.44	3.85271	189.152
28	1995.26	1410.12	94.0617	1413.25	3.81626	191.002
29	1584.89	1424.27	93.7972	1427.36	3.76785	192.732
30	1258.93	1438.55	93.3635	1441.57	3.71336	194.482
31	1000	1452.8	92.4902	1455.74	3.64273	196.567
32	794.328	1466.75	91.267	1469.59	3.56057	198.748
33	630.957	1480.48	89.6802	1483.2	3.46645	200.773
34	501.187	1493.32	87.8402	1495.9	3.36639	202.568
35	398.107	1505.69	85.8579	1508.14	3.2636	204.368
36	316.228	1517.03	83.9935	1519.35	3.16906	206.388
37	251.189	1527.46	82.5644	1529.69	3.09403	208.418
38	199.526	1536.87	81.9952	1539.05	3.05395	210.473
39	158.489	1545.14	82.806	1547.36	3.06761	212.513
40	125.893	1552.71	85.4317	1555.05	3.14931	214.583
41	100	1559.79	90.2689	1562.4	3.31215	216.658
42	79.4328	1566.58	99.296	1569.73	3.62677	218.663
43	63.0957	1573.84	110.223	1577.7	4.00613	220.873
44	50.1187	1582.12	124.506	1587.01	4.49967	222.968
45	39.8107	1591.8	143.213	1598.23	5.14101	232.878
46	31.6228	1603.07	166.089	1611.65	5.91513	235.118
47	25.1189	1617.17	194.328	1628.8	6.85212	237.403
48	19.9526	1634.58	227.59	1650.34	7.9266	240.178
49	15.8489	1654.98	267.344	1676.44	9.17623	242.818
50	12.5893	1679.27	313.799	1708.34	10.5846	245.613
51	10	1708.94	368.156	1748.14	12.1574	248.413
52	7.94328	1742.19	432.397	1795.04	13.9387	251.448
53	6.30957	1780.77	503.694	1850.63	15.7937	254.614
54	5.01187	1827.88	586.877	1919.78	17.8003	257.674
55	3.98107	1884.33	683.676	2004.53	19.9419	260.859
56	3.16228	1943.4	791.966	2098.57	22.1717	264.019
57	2.51189	2010.89	918.7	2210.81	24.5539	267.284
58	1.99526	2084.99	1058.96	2338.5	26.9258	270.804
59	1.58489	2171.97	1226.01	2494.11	29.4434	274.104
60	1.25893	2267.95	1413.44	2672.34	31.9322	277.494
61	1	2378.55	1632.15	2884.69	34.4578	283.879
62	0.794328	2517.21	1872.71	3137.42	36.6478	287.824
63	0.630957	2656.61	2165.77	3427.55	39.1882	291.909
64	0.501187	2813.37	2502.01	3764.99	41.6476	296.484
65	0.398107	2994.08	2899.91	4168.21	44.0846	301.444
66	0.316228	3197.64	3364.67	4641.75	46.458	306.685
67	0.251189	3424.96	3899.11	5189.74	48.704	312.8
68	0.199526	3685.14	4529.76	5839.43	50.8703	319.5
69	0.158489	3982.77	5271.62	6607	52.9285	327.295
70	0.125893	4328.8	6150.8	7521.36	54.8629	336.46
71	0.1	4732.04	7194.88	8611.54	56.6672	347.15