File: data/plate_beam/Z_plate3_20241219.txt
Index	Frequency (Hz)	Z' (Ω)	-Z'' (Ω)	Z (Ω)	-Phase (°)	Time (s)
1	1000000	703.002	215.194	735.2	17.0197	53.0448
2	794328.25	743.765	209.256	772.641	15.7138	63.39
3	630957.375	781.248	199.105	806.22	14.2978	68.7951
4	501187	814.528	186.908	835.698	12.9238	71.5051
5	398107	843.729	174.315	861.548	11.6731	80.0953
6	316228	869.133	161.395	883.991	10.5198	82.2803
7	251189	891.542	149.296	903.956	9.50646	88.9605
8	199526	911.337	138.028	921.73	8.61239	91.1255
9	158489	929.312	127.869	938.067	7.83446	93.5056
10	125893	945.507	118.726	952.932	7.15709	95.1406
11	100000	960.317	110.551	966.659	6.56692	96.8706
12	79432.8	974.193	101.251	979.44	5.93365	102.231
13	63095.7	987.239	96.0777	991.904	5.5585	106.846
14	50118.7	999.498	91.4331	1003.67	5.22681	114.091
15	39810.7	1011.08	87.356	1014.84	4.93803	116.816
16	31622.8	1022.12	83.8785	1025.56	4.69135	125.351
17	25118.9	1032.8	81.0295	1035.97	4.48603	128.941
18	19952.6	1043.22	78.7032	1046.18	4.31437	131.561
19	15848.9	1053.42	76.9471	1056.22	4.17777	139.691
20	12589.3	1063.52	75.7655	1066.22	4.07488	150.197
21	10000	1073.64	75.0771	1076.26	4.00004	158.517
22	7943.28	1083.81	74.8071	1086.39	3.94844	164.832
23	6309.57	1094.11	74.7865	1096.66	3.91031	171.417
24	5011.87	1104.6	75.1056	1107.15	3.88976	183.317
25	3981.07	1115.37	75.5934	1117.93	3.87727	185.422
26	3162.28	1126.43	76.1372	1129	3.86682	187.327
27	2511.89	1137.64	76.744	1140.22	3.85928	189.152
28	1995.26	1149.08	77.2005	1151.67	3.84363	191.002
29	1584.89	1160.74	77.5749	1163.33	3.82351	192.732
30	1258.93	1172.4	77.7467	1174.98	3.79395	194.482
31	1000	1184.19	77.5221	1186.72	3.74549	196.567
32	794.328	1195.73	77.2257	1198.22	3.69528	198.748
33	630.957	1207.12	76.5694	1209.55	3.62948	200.773
34	501.187	1217.88	75.982	1220.25	3.56999	202.568
35	398.107	1228.22	75.5217	1230.54	3.51861	204.368
36	316.228	1237.94	75.3028	1240.23	3.48095	206.388
37	251.189	1247.04	75.7074	1249.34	3.47414	208.418
38	199.526	1255.59	77.0611	1257.95	3.5121	210.473
39	158.489	1263.55	79.7529	1266.06	3.61163	212.513
40	125.893	1271.32	84.1553	1274.1	3.78718	214.583
41	100	1279.13	90.556	1282.33	4.04949	216.658
42	79.4328	1287.16	100.438	1291.07	4.46179	218.663
43	63.0957	1296.14	111.877	1300.95	4.93329	220.873
44	50.1187	1306.29	125.865	1312.34	5.50363	222.968
45	39.8107	1317.93	143.391	1325.71	6.20934	232.878
46	31.6228	1331.22	164.204	1341.31	7.03181	235.118
47	25.1189	1347.04	189.255	1360.27	7.99753	237.403
48	19.9526	1365.77	218.116	1383.07	9.07363	240.178
49	15.8489	1387.14	252.186	1409.88	10.304	242.818
50	12.5893	1411.66	291.601	1441.46	11.6712	245.613
51	10	1440.46	337.519	1479.47	13.1873	248.413
52	7.94328	1472.18	391.423	1523.33	14.8893	251.448
53	6.30957	1508.06	451.156	1574.09	16.6553	254.614
54	5.01187	1550.63	520.85	1635.77	18.567	257.674
55	3.98107	1600.52	601.81	1709.92	20.6068	260.859
56	3.16228	1653	693.618	1792.63	22.7634	264.019
57	2.51189	1712.27	801.934	1890.75	25.0959	267.284
58	1.99526	1777.4	921.527	2002.09	27.4054	270.804
59	1.58489	1853.98	1064.29	2137.74	29.8583	274.104
60	1.25893	1939.34	1224.32	2293.47	32.2644	277.494
61	1	2038.13	1410.2	2478.44	34.6797	283.879
62	0.794328	2147.84	1630.08	2696.36	37.1962	287.824
63	0.630957	2275.39	1873.13	2947.21	39.4615	291.909
64	0.501187	2430.21	2138.12	3236.89	41.3416	296.484
65	0.398107	2592.54	2464.43	3576.96	43.5487	301.444
66	0.316228	2774.03	2843.38	3972.41	45.7073	306.685
67	0.251189	2973.52	3273.75	4422.58	47.7514	312.8
68	0.199526	3198.21	3779.27	4950.9	49.7605	319.5
69	0.158489	3451.95	4370.68	5569.45	51.6984	327.295
70	0.125893	3742.36	5067.04	6299.22	53.5516	336.46
71	0.1	4077.97	5894.68	7167.78	55.3243	347.15