File: data/20191106/Z_p26_1.txt
Index	Frequency (Hz)	Z' (Ω)	-Z'' (Ω)	Z (Ω)	-Phase (°)	Time (s)
1	1000000	1640.71	794.612	1823	25.8414	92.9195
2	794330	1744.4	719.732	1887.04	22.4209	94.3846
3	630960	1860.07	639.658	1966.98	18.9776	95.8546
4	501190	1961.14	561.623	2039.97	15.9804	97.4396
5	398110	2037.54	461.613	2089.18	12.7651	100.73
6	316230	2100.49	400.875	2138.4	10.8049	102.11
7	251190	2113.2	330.278	2138.85	8.88307	105.355
8	199530	2161.5	290.249	2180.9	7.648	106.73
9	158490	2200.76	253.865	2215.36	6.58016	108.135
10	125890	2230.19	220.847	2241.1	5.65532	109.475
11	100000	2254.86	192.626	2263.07	4.88276	110.985
12	79433	2275.03	168.689	2281.28	4.24061	112.365
13	63096	2290.09	147.943	2294.87	3.69624	113.765
14	50119	2305.09	130.656	2308.79	3.24414	115.135
15	39811	2317.22	116.674	2320.16	2.88244	116.595
16	31623	2327.35	105.401	2329.74	2.59302	117.985
17	25119	2336.58	97.0065	2338.59	2.37735	119.38
18	19953	2346.03	90.8071	2347.79	2.21662	120.805
19	15849	2355.49	85.768	2357.05	2.08533	122.15
20	12589	2362.95	83.159	2364.41	2.01557	123.585
21	10000	2372.9	81.814	2374.31	1.97469	124.97
22	7943.3	2381.45	82.0005	2382.87	1.97208	126.385
23	6309.6	2390.83	83.2586	2392.27	1.99447	127.81
24	5011.9	2399.55	85.9964	2401.09	2.05252	129.225
25	3981.1	2408.41	89.9627	2410.09	2.13921	130.575
26	3162.3	2419.16	95.1105	2421.03	2.25146	131.955
27	2511.9	2430.76	101.819	2432.89	2.39858	133.375
28	1995.3	2441.71	109.845	2444.18	2.57582	134.745
29	1584.9	2453.92	119.556	2456.83	2.78928	136.05
30	1258.9	2468.75	131.195	2472.23	3.04198	137.46
31	1000	2482.88	145.07	2487.12	3.34387	138.775
32	794.33	2498.75	161.407	2503.96	3.69589	140.31
33	630.96	2516.93	180.647	2523.4	4.10524	141.71
34	501.19	2537.17	202.907	2545.27	4.57242	143.125
35	398.11	2559.14	229.131	2569.38	5.11631	144.501
36	316.23	2584.69	259.309	2597.66	5.72904	145.786
37	251.19	2613.28	294.689	2629.84	6.43384	147.136
38	199.53	2645.47	335.279	2666.63	7.22301	148.591
39	158.49	2682.65	381.664	2709.67	8.0972	150.026
40	125.89	2725.83	435.236	2760.36	9.07191	151.506
41	100	2772.76	496.074	2816.79	10.1435	152.896
42	79.433	2828.01	566.245	2884.14	11.3225	154.431
43	63.096	2890.97	646.328	2962.34	12.6022	156.056
44	50.119	2960.87	736.206	3051.02	13.9632	157.611
45	39.811	3046.24	843.72	3160.93	15.4812	166.786
46	31.623	3140.9	964.375	3285.61	17.0685	168.446
47	25.119	3247.61	1102.17	3429.54	18.7461	170.041
48	19.953	3371.93	1260.77	3599.92	20.5009	172.021
49	15.849	3518.52	1441.85	3802.49	22.2833	174.166
50	12.589	3685.63	1647.54	4037.11	24.0855	176.241
51	10	3878.84	1879.54	4310.22	25.8531	178.591
52	7.9433	4103.98	2140.72	4628.75	27.5475	181.016
53	6.3096	4362.36	2433.52	4995.21	29.1547	183.451
54	5.0119	4661.14	2759.23	5416.6	30.624	185.911
55	3.9811	5005.49	3117.86	5897.12	31.9183	188.366
56	3.1623	5394.71	3512.3	6437.33	33.0667	191.056
57	2.5119	5818.92	3959.97	7038.55	34.2366	193.686
58	1.9953	6301.69	4433.68	7705.11	35.1291	196.406
59	1.5849	6840.36	4968.73	8454.51	35.9941	199.222
60	1.2589	7398.52	5607.53	9283.45	37.1594	202.092
61	1	8050.23	6284.2	10212.6	37.9765	207.247
62	0.79433	8771.47	7095.29	11281.9	38.9696	210.487
63	0.63096	9561.58	8033.06	12488.1	40.035	214.052
64	0.50119	10465	9102.54	13869.8	41.017	218.047
65	0.39811	11472.6	10372.1	15466.2	42.116	222.362
66	0.31623	12671.1	11807.2	17319.5	42.9787	227.132
67	0.25119	13965.4	13441.6	19383.2	43.9052	232.597
68	0.19953	15510.2	15262.1	21760	44.5381	238.907
69	0.15849	17299.7	17380	24522.3	45.1326	246.237
70	0.12589	19311.1	19677.3	27570.2	45.5381	263.603
71	0.1	21771.6	22333.4	31189.5	45.7298	273.803