File: data/20191106/Z_p23_1.txt
Index	Frequency (Hz)	Z' (Ω)	-Z'' (Ω)	Z (Ω)	-Phase (°)	Time (s)
1	1000000	1491.95	670.707	1635.77	24.2064	110.218
2	794330	1573.19	603.226	1684.88	20.9789	111.673
3	630960	1666.12	535.877	1750.18	17.8294	113.123
4	501190	1746.71	469.913	1808.82	15.0576	114.693
5	398110	1809.6	387.722	1850.67	12.0933	117.943
6	316230	1863.16	337.042	1893.39	10.2538	119.338
7	251190	1872.8	280.552	1893.7	8.51976	122.603
8	199530	1916.36	247.789	1932.31	7.36758	123.948
9	158490	1949.95	217.293	1962.02	6.35854	125.338
10	125890	1976.92	190.613	1986.09	5.50738	126.698
11	100000	1998.93	166.802	2005.88	4.77001	128.143
12	79433	2016.43	146.767	2021.76	4.16296	129.468
13	63096	2031.1	129.835	2035.25	3.65758	130.933
14	50119	2044.37	115.558	2047.63	3.23521	132.348
15	39811	2056.67	103.57	2059.28	2.88288	133.673
16	31623	2065.91	93.7234	2068.03	2.59754	135.033
17	25119	2074.44	86.6312	2076.24	2.39136	136.343
18	19953	2083.77	80.379	2085.32	2.20902	137.653
19	15849	2092.98	76.631	2094.38	2.09685	139.018
20	12589	2101.24	73.5015	2102.53	2.00339	140.343
21	10000	2109.27	71.827	2110.49	1.95034	141.728
22	7943.3	2117.41	71.1336	2118.61	1.9241	143.143
23	6309.6	2126.46	71.5706	2127.67	1.92768	144.508
24	5011.9	2134.01	72.705	2135.25	1.95129	145.878
25	3981.1	2143.28	75.1334	2144.6	2.0077	147.234
26	3162.3	2151.85	78.1709	2153.27	2.08049	148.544
27	2511.9	2160.85	82.3625	2162.42	2.18281	149.854
28	1995.3	2170.61	87.8103	2172.38	2.3166	151.229
29	1584.9	2181.24	94.4847	2183.29	2.48032	152.514
30	1258.9	2193.24	102.56	2195.64	2.6773	153.839
31	1000	2203.55	112.218	2206.4	2.91534	155.194
32	794.33	2216.75	124.139	2220.23	3.20524	156.644
33	630.96	2229.84	138.102	2234.11	3.54402	157.979
34	501.19	2244.58	154.914	2249.92	3.94812	159.439
35	398.11	2259.85	174.896	2266.61	4.42546	160.799
36	316.23	2279.2	198.522	2287.83	4.97799	162.134
37	251.19	2299.26	226.75	2310.41	5.63222	163.534
38	199.53	2322.61	259.461	2337.06	6.37414	164.744
39	158.49	2347.56	298.03	2366.41	7.23515	166.144
40	125.89	2378.75	343.349	2403.4	8.21335	167.584
41	100	2413.09	395.978	2445.37	9.31893	168.874
42	79.433	2452.97	457.554	2495.28	10.566	170.314
43	63.096	2499.59	529.532	2555.06	11.9611	171.854
44	50.119	2555.78	614.979	2628.73	13.5295	173.299
45	39.811	2618.79	709.955	2713.32	15.1683	182.469
46	31.623	2693.65	822.124	2816.31	16.9726	184.109
47	25.119	2780.42	951.896	2938.85	18.899	185.744
48	19.953	2882.05	1102.3	3085.66	20.9305	187.729
49	15.849	3003.36	1274.95	3262.77	23.0016	189.724
50	12.589	3146.93	1472.72	3474.49	25.079	191.874
51	10	3313.73	1698.15	3723.51	27.1332	194.274
52	7.9433	3510.5	1953.92	4017.64	29.0999	196.654
53	6.3096	3745.19	2243.61	4365.8	30.9244	198.999
54	5.0119	4016.35	2567.13	4766.68	32.5855	201.455
55	3.9811	4337.92	2928.04	5233.64	34.0188	203.995
56	3.1623	4710.7	3327.48	5767.4	35.2361	206.53
57	2.5119	5139.24	3763.84	6370.11	36.218	209.15
58	1.9953	5638.58	4236.91	7053.01	36.9217	211.89
59	1.5849	6216.9	4764	7832.34	37.4629	214.745
60	1.2589	6849.02	5309.33	8665.92	37.7827	217.635
61	1	7579.39	5916.23	9615.03	37.9745	222.695
62	0.79433	8396.43	6567.46	10659.8	38.0316	225.935
63	0.63096	9295.11	7262.54	11795.9	38.0015	229.435
64	0.50119	10295.8	8016.04	13048.4	37.9035	233.335
65	0.39811	11406.9	8834.93	14428.2	37.7587	237.62
66	0.31623	12651.8	9693.98	15938.7	37.4598	242.42
67	0.25119	13957.2	10641.9	17551.5	37.3242	248.02
68	0.19953	15441.3	11626.9	19329.2	36.9788	254.23
69	0.15849	17040.3	12731.1	21270.9	36.7641	261.596
70	0.12589	18906.3	13864.6	23445.2	36.2537	270.186
71	0.1	20744.6	15052.6	25630.4	35.9653	280.431