File: data/20191106/Z_p24_1.txt
Index	Frequency (Hz)	Z' (Ω)	-Z'' (Ω)	Z (Ω)	-Phase (°)	Time (s)
1	1000000	1282.54	571.602	1404.15	24.0215	22.4192
2	794330	1352.63	519.82	1449.08	21.0219	24.4293
3	630960	1432.21	465.287	1505.9	17.9976	25.9893
4	501190	1502.46	414.044	1558.46	15.407	27.5943
5	398110	1554.93	344.549	1592.65	12.494	30.9244
6	316230	1602.13	303.356	1630.59	10.7218	32.3544
7	251190	1641.72	264.988	1662.97	9.16893	33.7045
8	199530	1672.87	232.183	1688.91	7.90179	35.1595
9	158490	1684.65	200.872	1696.58	6.79964	37.5295
10	125890	1710.66	178.178	1719.92	5.94633	39.0646
11	100000	1731.77	157.907	1738.95	5.20998	41.2196
12	79433	1749.28	140.72	1754.93	4.59923	42.6796
13	63096	1764.3	125.051	1768.72	4.05427	44.0846
14	50119	1777.02	112.863	1780.6	3.6341	45.5047
15	39811	1789.53	102.555	1792.46	3.27994	47.2897
16	31623	1799.98	93.7768	1802.43	2.98234	48.6597
17	25119	1809.84	87.1419	1811.94	2.7566	50.0298
18	19953	1818.74	81.7817	1820.57	2.57464	51.5548
19	15849	1827.33	77.8919	1828.99	2.44082	52.8998
20	12589	1836.24	75.3036	1837.78	2.34837	54.2848
21	10000	1844.32	73.9488	1845.81	2.29606	55.8199
22	7943.3	1853.29	73.6939	1854.75	2.2771	57.1999
23	6309.6	1861.62	74.62	1863.11	2.29538	58.5549
24	5011.9	1869.55	76.67	1871.12	2.34838	59.9449
25	3981.1	1878.83	79.8343	1880.52	2.43313	61.345
26	3162.3	1887.17	84.203	1889.05	2.55477	62.685
27	2511.9	1896.37	89.9611	1898.5	2.71599	64.125
28	1995.3	1907.19	97.2863	1909.67	2.92014	65.535
29	1584.9	1917.25	106.349	1920.2	3.17491	66.8301
30	1258.9	1928.77	117.249	1932.33	3.47869	68.1701
31	1000	1940.71	130.197	1945.07	3.83807	69.5601
32	794.33	1954.45	145.694	1959.88	4.26321	71.0201
33	630.96	1970.96	164.246	1977.79	4.76361	72.5302
34	501.19	1987.47	186.149	1996.17	5.35078	73.9452
35	398.11	2007.43	211.926	2018.59	6.02643	75.2552
36	316.23	2028.91	242.082	2043.3	6.80415	76.6602
37	251.19	2054.99	277.621	2073.65	7.69385	78.0553
38	199.53	2083.26	318.787	2107.51	8.70009	79.2853
39	158.49	2115.44	366.298	2146.92	9.82362	80.7153
40	125.89	2154.96	422.054	2195.9	11.0813	82.1304
41	100	2199.21	485.948	2252.26	12.4601	83.4854
42	79.433	2248.64	559.299	2317.15	13.9676	85.0104
43	63.096	2308	644.67	2396.35	15.6061	86.5904
44	50.119	2378.7	744.077	2492.36	17.3701	96.5356
45	39.811	2456.32	857.034	2601.54	19.2344	105.601
46	31.623	2546.23	988.752	2731.47	21.2222	109.421
47	25.119	2650.77	1140.01	2885.52	23.271	110.986
48	19.953	2769.24	1316.13	3066.08	25.4202	112.991
49	15.849	2910.77	1520.23	3283.85	27.5771	115.026
50	12.589	3074.99	1753.74	3539.94	29.6971	117.031
51	10	3268.8	2024.16	3844.77	31.7673	119.396
52	7.9433	3497.21	2334.92	4205.04	33.7292	121.766
53	6.3096	3767.53	2687.34	4627.75	35.4999	124.211
54	5.0119	4081.11	3082.81	5114.61	37.0669	126.611
55	3.9811	4451.47	3526.67	5679.17	38.388	129.116
56	3.1623	4885.92	4022.06	6328.44	39.461	131.721
57	2.5119	5382.31	4572.04	7062.07	40.3464	134.341
58	1.9953	5945.4	5177.17	7883.58	41.0489	136.956
59	1.5849	6586.62	5835.91	8800.08	41.5417	139.766
60	1.2589	7310.46	6572.65	9830.7	41.9579	142.621
61	1	8102.08	7389.32	10965.7	42.3657	147.807
62	0.79433	9005.46	8316.98	12258.5	42.724	150.997
63	0.63096	9986.55	9350.12	13680.5	43.1149	154.522
64	0.50119	11114.9	10545.5	15321.5	43.4942	158.342
65	0.39811	12328.4	11903.4	17137.2	43.9951	162.612
66	0.31623	13767.6	13439.2	19239.5	44.3084	167.467
67	0.25119	15297.5	15177.7	21549.4	44.7747	172.967
68	0.19953	17095.2	17054.6	24147.6	44.9319	185.082
69	0.15849	19156.4	19315.1	27203.7	45.2363	199.348
70	0.12589	21414.6	21810.8	30566.3	45.5252	207.838
71	0.1	24115.3	24844.3	34623.5	45.853	218.073