File: data/20191106/Z_p22_1.txt
Index	Frequency (Hz)	Z' (Ω)	-Z'' (Ω)	Z (Ω)	-Phase (°)	Time (s)
1	1000000	1252.35	502.255	1349.31	21.8533	66.071
2	794330	1308.7	449.514	1383.75	18.9566	67.566
3	630960	1374.67	393.088	1429.77	15.9579	68.9911
4	501190	1429.16	341.321	1469.35	13.4321	70.5461
5	398110	1467.77	275.402	1493.38	10.627	73.0111
6	316230	1504.75	235.437	1523.06	8.89253	74.3762
7	251190	1531.63	200.792	1544.73	7.46872	75.6712
8	199530	1552.93	171.348	1562.36	6.29646	77.1312
9	158490	1569.83	146.503	1576.65	5.33165	78.5912
10	125890	1574.57	124.887	1579.51	4.53493	80.9063
11	100000	1588.81	107.917	1592.47	3.88577	82.2013
12	79433	1599.05	93.7322	1601.79	3.3547	83.5563
13	63096	1607.96	81.9658	1610.05	2.91813	85.0464
14	50119	1615.35	71.8378	1616.95	2.54637	86.4714
15	39811	1622.42	63.4912	1623.66	2.24105	87.8014
16	31623	1627.27	56.9706	1628.26	2.0051	89.1864
17	25119	1633.58	52.0398	1634.41	1.82461	90.5965
18	19953	1638.71	48.147	1639.42	1.68293	92.0365
19	15849	1644.11	45.2741	1644.73	1.57736	93.4165
20	12589	1648.77	43.1727	1649.33	1.49994	94.8165
21	10000	1653.69	41.6586	1654.21	1.44305	96.1816
22	7943.3	1658.83	40.9848	1659.34	1.41532	97.5816
23	6309.6	1664.01	40.7556	1664.51	1.40303	99.0516
24	5011.9	1669.77	40.9002	1670.27	1.40315	100.417
25	3981.1	1674.03	41.4404	1674.54	1.41806	101.742
26	3162.3	1679.6	42.4033	1680.14	1.44618	103.262
27	2511.9	1685.09	43.6408	1685.65	1.48353	104.632
28	1995.3	1691.34	45.2791	1691.94	1.53351	105.947
29	1584.9	1697.59	47.315	1698.25	1.59653	107.292
30	1258.9	1703.61	49.7073	1704.34	1.67128	108.637
31	1000	1711.08	52.4259	1711.89	1.75494	109.972
32	794.33	1717.41	55.6536	1718.31	1.85605	111.482
33	630.96	1724.96	59.2678	1725.98	1.96785	112.792
34	501.19	1733.28	63.4299	1734.44	2.09582	114.142
35	398.11	1742.16	68.3655	1743.5	2.24724	115.452
36	316.23	1751.34	73.9019	1752.9	2.41629	116.832
37	251.19	1760.86	80.1811	1762.68	2.60718	118.242
38	199.53	1771.83	87.2576	1773.98	2.81938	119.612
39	158.49	1782.97	95.2506	1785.51	3.05798	120.977
40	125.89	1796.36	104.161	1799.37	3.31856	122.372
41	100	1809.13	113.665	1812.7	3.59508	123.772
42	79.433	1823.43	124.558	1827.68	3.9078	125.142
43	63.096	1839.46	136.749	1844.53	4.25167	126.642
44	50.119	1859.64	150.956	1865.76	4.6408	136.527
45	39.811	1879.31	165.923	1886.62	5.04551	145.557
46	31.623	1900.59	183.266	1909.4	5.50776	147.193
47	25.119	1923.29	202.526	1933.92	6.0112	148.808
48	19.953	1946.79	225.368	1959.79	6.6034	150.793
49	15.849	1975.75	250.412	1991.56	7.2233	152.798
50	12.589	2003.53	278.794	2022.83	7.92192	154.888
51	10	2035.64	312.714	2059.52	8.73347	157.208
52	7.9433	2072.19	351.192	2101.73	9.61905	159.558
53	6.3096	2108.28	395.351	2145.03	10.6209	161.938
54	5.0119	2150.84	447.139	2196.83	11.744	167.158
55	3.9811	2197.37	508.354	2255.4	13.0261	169.528
56	3.1623	2247.17	579.707	2320.74	14.4653	172.003
57	2.5119	2301.25	665.385	2395.51	16.1268	174.573
58	1.9953	2364.06	764.4	2484.57	17.9182	177.208
59	1.5849	2431.19	885.269	2587.35	20.0081	179.928
60	1.2589	2508.11	1027.31	2710.35	22.2737	184.338
61	1	2593.5	1198.69	2857.11	24.8058	189.263
62	0.79433	2692.37	1404.39	3036.64	27.5474	192.533
63	0.63096	2804.21	1642.97	3250.07	30.3658	196.063
64	0.50119	2930.33	1942.32	3515.6	33.5378	199.933
65	0.39811	3079.67	2290.74	3838.21	36.6429	204.214
66	0.31623	3254.45	2729.76	4247.71	39.9891	208.949
67	0.25119	3473.35	3224.39	4739.29	42.8712	214.324
68	0.19953	3733.53	3831.42	5349.67	45.7413	220.534
69	0.15849	4021.96	4555.37	6076.8	48.5585	227.804
70	0.12589	4369.98	5461.42	6994.56	51.3348	236.369
71	0.1	4854	6480.04	8096.43	53.1643	246.604