File: data/20191106/Z_p25_1.txt
Index	Frequency (Hz)	Z' (Ω)	-Z'' (Ω)	Z (Ω)	-Phase (°)	Time (s)
1	1000000	1404.19	627.135	1537.87	24.0664	110.503
2	794330	1480.69	570.357	1586.74	21.0665	111.913
3	630960	1568.59	510.102	1649.44	18.0145	113.368
4	501190	1644.76	450.567	1705.36	15.3198	114.908
5	398110	1704.81	376.108	1745.81	12.441	118.158
6	316230	1758.73	330.177	1789.46	10.6327	119.528
7	251190	1799.58	289.356	1822.7	9.13446	120.868
8	199530	1812.84	247.813	1829.7	7.78401	123.303
9	158490	1845.99	220.417	1859.1	6.80907	124.563
10	125890	1874.34	195.781	1884.54	5.9631	125.948
11	100000	1897.93	174.166	1905.91	5.24313	127.443
12	79433	1917.59	155.486	1923.88	4.63563	128.798
13	63096	1935.56	139.632	1940.59	4.12618	130.168
14	50119	1948.7	125.925	1952.76	3.69733	131.468
15	39811	1963.38	114.699	1966.73	3.34337	132.788
16	31623	1974.6	105.041	1977.39	3.04503	134.163
17	25119	1985.65	98.0641	1988.07	2.82734	135.518
18	19953	1996.05	92.7024	1998.21	2.65907	136.908
19	15849	2006.47	88.5769	2008.43	2.52771	138.263
20	12589	2016.23	85.8533	2018.05	2.43825	139.648
21	10000	2025.53	84.5133	2027.29	2.38923	141.093
22	7943.3	2035.36	84.5149	2037.12	2.37774	142.518
23	6309.6	2045.12	85.9361	2046.93	2.40615	143.973
24	5011.9	2054.32	88.1944	2056.21	2.45826	145.368
25	3981.1	2065.3	92.2522	2067.35	2.55758	146.754
26	3162.3	2075.86	97.2972	2078.14	2.68353	148.034
27	2511.9	2086.18	103.501	2088.74	2.84027	149.439
28	1995.3	2098.42	111.649	2101.39	3.04563	150.784
29	1584.9	2110.41	121.178	2113.88	3.28626	151.964
30	1258.9	2124.53	132.895	2128.68	3.57934	153.319
31	1000	2139.7	146.663	2144.72	3.92112	154.699
32	794.33	2155.44	162.791	2161.58	4.31909	156.119
33	630.96	2174.88	182.175	2182.5	4.7881	157.514
34	501.19	2194.59	204.676	2204.12	5.32821	158.849
35	398.11	2215.88	230.978	2227.88	5.9509	160.174
36	316.23	2241.67	261.788	2256.9	6.66099	161.544
37	251.19	2269.56	297.994	2289.04	7.48016	162.959
38	199.53	2301.51	339.649	2326.44	8.39491	164.239
39	158.49	2336.71	388.285	2368.75	9.43449	165.599
40	125.89	2378.87	444.778	2420.09	10.5903	167.034
41	100	2425.3	509.609	2478.26	11.8665	168.454
42	79.433	2480.04	584.34	2547.95	13.258	170.039
43	63.096	2543.03	670.547	2629.95	14.7715	171.599
44	50.119	2616.03	769.928	2726.98	16.3998	173.129
45	39.811	2702.57	886.565	2844.27	18.1619	182.299
46	31.623	2798.5	1018.16	2977.96	19.9927	183.974
47	25.119	2911.29	1168.05	3136.87	21.8614	185.589
48	19.953	3042.09	1343.15	3325.41	23.8224	187.504
49	15.849	3191.56	1538.64	3543.08	25.7385	189.574
50	12.589	3368.55	1764.73	3802.82	27.6493	191.699
51	10	3573.2	2020.86	4105.08	29.4907	194.029
52	7.9433	3813.97	2314.82	4461.47	31.2549	196.374
53	6.3096	4092.97	2643.58	4872.46	32.8577	198.779
54	5.0119	4414.27	3006.24	5340.72	34.256	201.365
55	3.9811	4796.82	3423.08	5892.96	35.5122	204.065
56	3.1623	5240.1	3865.17	6511.39	36.413	206.74
57	2.5119	5755.54	4367.69	7225.16	37.1936	209.41
58	1.9953	6342.95	4905.35	8018.45	37.7167	212.11
59	1.5849	7025.15	5495.96	8919.55	38.037	214.975
60	1.2589	7805.72	6105.34	9909.82	38.0312	217.855
61	1	8652.87	6755.52	10977.7	37.9801	222.975
62	0.79433	9618.81	7416.9	12146.3	37.6352	226.215
63	0.63096	10680.6	8130.38	13423	37.2795	229.81
64	0.50119	11856.6	8874.59	14810	36.8146	233.685
65	0.39811	13133.5	9665.5	16306.8	36.3508	237.96
66	0.31623	14530.7	10490.4	17921.8	35.8273	242.88
67	0.25119	16049.6	11303.1	19630.3	35.1555	248.445
68	0.19953	17757.6	12167	21526	34.4178	254.761
69	0.15849	19441	13043.7	23411.3	33.8591	262.021
70	0.12589	21363.3	14120.8	25608.4	33.464	270.631
71	0.1	23223.3	14971.5	27630.9	32.809	291.706