File: data/20191106/Z_p21_1.txt
Index	Frequency (Hz)	Z' (Ω)	-Z'' (Ω)	Z (Ω)	-Phase (°)	Time (s)
1	1000000	1192.08	492.316	1289.74	22.4402	23.0622
2	794330	1249.23	443.795	1325.72	19.5578	24.4922
3	630960	1316.39	391.258	1373.3	16.5531	25.8773
4	501190	1371.96	344.575	1414.57	14.0985	27.4273
5	398110	1411.76	281.892	1439.62	11.292	29.8373
6	316230	1450.8	244.495	1471.26	9.56585	31.2074
7	251190	1480.31	211.458	1495.33	8.12955	32.4824
8	199530	1503.3	183.059	1514.41	6.94278	33.8874
9	158490	1522.43	158.59	1530.66	5.94699	35.3224
10	125890	1538.16	137.993	1544.33	5.12648	36.6275
11	100000	1546.81	121.007	1551.54	4.47315	38.9025
12	79433	1558.71	106.744	1562.36	3.91762	40.1825
13	63096	1569.74	94.8068	1572.6	3.45628	41.6326
14	50119	1579.14	84.8999	1581.42	3.07745	43.0026
15	39811	1586.87	76.7693	1588.73	2.76968	44.3026
16	31623	1595.12	70.4585	1596.67	2.52919	45.5876
17	25119	1602.06	65.9028	1603.41	2.35561	46.9127
18	19953	1608.65	62.6342	1609.87	2.22974	48.2077
19	15849	1615.16	60.2243	1616.28	2.13539	49.5427
20	12589	1622.45	59.1018	1623.52	2.08622	50.8927
21	10000	1629.34	58.9563	1630.4	2.0723	52.2128
22	7943.3	1636.04	59.5603	1637.13	2.08494	53.6128
23	6309.6	1643.2	60.889	1644.32	2.12214	55.0528
24	5011.9	1651.53	63.0176	1652.73	2.18518	56.4028
25	3981.1	1658.65	65.8707	1659.96	2.27422	57.7179
26	3162.3	1667.41	69.4579	1668.86	2.38534	59.0379
27	2511.9	1676.28	73.6549	1677.89	2.51594	60.3579
28	1995.3	1686.12	78.718	1687.96	2.67296	61.6579
29	1584.9	1696.81	84.3619	1698.91	2.84628	62.873
30	1258.9	1707.45	90.9414	1709.87	3.04878	64.238
31	1000	1720.59	98.2007	1723.39	3.26654	65.573
32	794.33	1732.56	106.267	1735.82	3.50985	67.053
33	630.96	1747.91	115.194	1751.71	3.77054	68.3981
34	501.19	1763.86	125.014	1768.29	4.05407	69.7531
35	398.11	1781.29	135.968	1786.47	4.36499	71.0981
36	316.23	1799.66	147.483	1805.69	4.68494	72.4431
37	251.19	1820.93	160.29	1827.97	5.0306	73.7982
38	199.53	1843.53	174.083	1851.73	5.39442	75.1432
39	158.49	1867.6	188.581	1877.09	5.76592	76.5282
40	125.89	1893.6	204.142	1904.57	6.15308	77.9132
41	100	1922.38	221.183	1935.06	6.56342	79.2433
42	79.433	1952.68	239.113	1967.26	6.98133	80.7183
43	63.096	1985.5	258.457	2002.25	7.41661	82.3233
44	50.119	2023.18	280.88	2042.59	7.90388	92.1235
45	39.811	2062.2	303.379	2084.39	8.369	102.804
46	31.623	2102.51	329.175	2128.12	8.89816	104.364
47	25.119	2145.38	358.178	2175.08	9.4783	106.039
48	19.953	2192.25	390.832	2226.82	10.1084	108.004
49	15.849	2243.31	426.818	2283.55	10.7725	110.004
50	12.589	2298.23	467.271	2345.26	11.4926	112.009
51	10	2357.01	512.256	2412.03	12.2616	114.364
52	7.9433	2422.08	562.875	2486.63	13.0829	116.739
53	6.3096	2493.35	620.27	2569.35	13.9699	119.049
54	5.0119	2568.69	685.072	2658.48	14.9332	121.464
55	3.9811	2652.64	758.635	2758.99	15.9602	123.944
56	3.1623	2743.56	842.099	2869.89	17.0631	126.434
57	2.5119	2843.63	938.027	2994.35	18.2562	128.954
58	1.9953	2951.56	1048.39	3132.22	19.5549	131.679
59	1.5849	3073.77	1177.35	3291.54	20.9584	134.449
60	1.2589	3205.68	1322.96	3467.94	22.4257	137.474
61	1	3351.31	1497.29	3670.58	24.074	142.479
62	0.79433	3521.79	1698.07	3909.79	25.7416	145.689
63	0.63096	3709.6	1919.47	4176.78	27.3586	149.21
64	0.50119	3923.02	2191.64	4493.7	29.1904	153.085
65	0.39811	4172.33	2494.51	4861.16	30.8739	157.365
66	0.31623	4463.25	2860	5300.96	32.6513	162.19
67	0.25119	4804.54	3241.49	5795.76	34.0065	167.595
68	0.19953	5207.16	3692.11	6383.27	35.3383	173.835
69	0.15849	5663.98	4205.29	7054.44	36.5925	181.55
70	0.12589	6125.33	4784.94	7772.73	37.996	190.105
71	0.1	6776.21	5472.13	8709.84	38.9226	200.345